"C3","C4","CZ","EMG","F3","F4","F7","F8","FP1","FP2","FZ","LOG","O1","O2","P3","P4","PZ","ROG","T3","T4","T5","T6"
0.0084,0.00807,0.00822,0.01875,1.10281,0.0067,0.00801,0.0077,0.00793,0.00744,0.00688,0.0024,0.00693,0.0067,0.00844,0.00717,0.00838,0.00348,0.00676,0.00646,0.00615,0.00592
0.01232,0.01037,0.01254,0.36302,0.59292,0.01374,0.01568,0.01451,0.01671,0.01746,0.01222,0.0026,0.00753,0.00732,0.00949,0.00816,0.00834,0.00368,0.01107,0.00993,0.00845,0.00702
0.01288,0.01229,0.01463,0.55026,0.76872,0.01173,0.01181,0.01093,0.01415,0.01283,0.01323,0.00231,0.00804,0.00802,0.01029,0.00892,0.01011,0.00376,0.00897,0.00887,0.00769,0.00751
0.0094,0.00965,0.01181,0.01617,0.99166,0.00799,0.00819,0.00844,0.00815,0.00782,0.00794,0.00241,0.00798,0.0081,0.00916,0.00836,0.00959,0.0036,0.00777,0.00728,0.00763,0.00689
0.01008,0.00945,0.0109,0.00888,1.38313,0.00914,0.00896,0.00904,0.01002,0.00834,0.00931,0.00241,0.00968,0.00953,0.00902,0.00879,0.01002,0.00327,0.00847,0.00874,0.00802,0.00833
0.01186,0.01254,0.01289,0.15621,0.84104,0.01439,0.0167,0.01625,0.01375,0.01463,0.01363,0.00241,0.01035,0.01164,0.01068,0.01064,0.01076,0.00424,0.01273,0.01258,0.00941,0.01062
0.01457,0.01547,0.01397,0.34029,0.55266,0.01614,0.01872,0.01872,0.01616,0.01782,0.01469,0.00317,0.01137,0.01118,0.01231,0.01264,0.01252,0.00444,0.01426,0.01501,0.01207,0.01119
0.01007,0.01159,0.01075,0.02336,0.79057,0.00913,0.00996,0.01025,0.01056,0.00834,0.00927,0.00286,0.00703,0.0077,0.00926,0.00905,0.00922,0.00352,0.00839,0.00845,0.00692,0.00793
0.00807,0.00887,0.00846,0.01069,1.08934,0.00943,0.00861,0.00906,0.00965,0.00724,0.00931,0.00253,0.00597,0.00597,0.00654,0.00722,0.00703,0.00348,0.00757,0.00738,0.00552,0.00597
0.01041,0.00972,0.0114,0.01488,0.82482,0.00969,0.01181,0.01019,0.01066,0.00886,0.00894,0.0027,0.00814,0.00898,0.00968,0.00873,0.00966,0.00407,0.0106,0.00892,0.00905,0.00775
0.01328,0.01303,0.01565,0.04517,0.58112,0.01394,0.01278,0.01391,0.01358,0.01463,0.01478,0.00239,0.00912,0.00972,0.01119,0.01082,0.01129,0.00395,0.01053,0.01119,0.00877,0.00931
0.01022,0.01042,0.01114,0.01812,0.63545,0.01036,0.01139,0.01069,0.00987,0.01036,0.00935,0.00206,0.00994,0.00965,0.00944,0.0092,0.00994,0.0043,0.01018,0.00947,0.00927,0.00793
0.00928,0.00924,0.01016,0.00849,0.94306,0.00795,0.00893,0.0093,0.00842,0.00813,0.00816,0.00233,0.00834,0.00783,0.00799,0.00797,0.00893,0.00374,0.00811,0.00726,0.00754,0.00695
0.01008,0.01098,0.01272,0.00828,0.73987,0.00927,0.00789,0.00859,0.00822,0.00767,0.00904,0.00209,0.00709,0.00789,0.00896,0.00941,0.00974,0.00343,0.00767,0.00736,0.00736,0.00734
0.01525,0.0141,0.02104,0.02191,0.72084,0.01258,0.01095,0.0109,0.00955,0.0088,0.01512,0.00215,0.00831,0.00884,0.01228,0.00949,0.01225,0.0036,0.00914,0.00859,0.00886,0.00716
0.00917,0.00923,0.00963,0.10037,0.60842,0.00971,0.01285,0.01139,0.01096,0.01086,0.00911,0.00231,0.00892,0.00935,0.00844,0.00832,0.00879,0.00329,0.0107,0.00842,0.00785,0.0079
0.01056,0.01125,0.01365,0.00928,0.57734,0.00926,0.0086,0.00793,0.00738,0.00766,0.01031,0.00227,0.00767,0.00937,0.00873,0.00896,0.01004,0.00313,0.00736,0.0073,0.00634,0.00748
0.00963,0.00801,0.00889,0.00816,0.60109,0.00756,0.00777,0.00693,0.00738,0.00671,0.00787,0.00215,0.00765,0.00836,0.00804,0.00834,0.00871,0.00297,0.0063,0.00621,0.00657,0.0066
0.00824,0.00847,0.00849,0.00814,0.69821,0.00826,0.00988,0.00839,0.00976,0.0115,0.00724,0.00448,0.00921,0.00914,0.00871,0.00832,0.00849,0.00422,0.0071,0.00771,0.00798,0.00724
0.00935,0.01066,0.01033,0.01142,0.66605,0.0109,0.01227,0.01216,0.01277,0.02112,0.00882,0.0055,0.00769,0.00986,0.00933,0.00949,0.00959,0.00501,0.00837,0.00865,0.00732,0.00806
0.00894,0.01147,0.01166,0.01207,0.51777,0.00998,0.01209,0.01071,0.01542,0.02276,0.01,0.0073,0.00902,0.01062,0.00973,0.01113,0.01172,0.00419,0.0081,0.00799,0.00781,0.00822
0.00877,0.00991,0.00969,0.00952,0.64605,0.00857,0.01043,0.01026,0.01085,0.01583,0.00842,0.00615,0.00904,0.00988,0.00838,0.00965,0.01063,0.00636,0.01002,0.00709,0.00716,0.00681
0.00717,0.0076,0.00715,0.01121,0.55945,0.00744,0.00697,0.00785,0.00713,0.00737,0.00716,0.00247,0.00597,0.0068,0.00666,0.00689,0.00682,0.00355,0.00699,0.00681,0.00599,0.00624
0.0091,0.00808,0.00833,0.01268,0.55582,0.00882,0.01177,0.0107,0.00884,0.01277,0.00802,0.00409,0.00706,0.00763,0.00861,0.00761,0.00822,0.00399,0.00829,0.00812,0.00708,0.00695
0.00834,0.00867,0.00935,0.00788,0.69316,0.00859,0.0077,0.00854,0.00806,0.01141,0.0082,0.00292,0.00894,0.00906,0.00877,0.00923,0.01006,0.0038,0.00662,0.00656,0.0066,0.00767
0.00752,0.0081,0.00908,0.01173,0.92235,0.00802,0.01015,0.00879,0.0088,0.00809,0.00738,0.0027,0.00674,0.00787,0.00728,0.00754,0.00783,0.00348,0.00898,0.00757,0.00613,0.00636
0.00849,0.00851,0.00916,0.02598,0.5954,0.00912,0.01219,0.01224,0.00963,0.0113,0.0089,0.00213,0.00781,0.00871,0.00833,0.00845,0.00902,0.00434,0.00982,0.0091,0.00784,0.00761
0.01263,0.01213,0.01584,0.04933,0.60044,0.01156,0.01254,0.01358,0.0108,0.01199,0.01455,0.00243,0.0082,0.00986,0.00972,0.01023,0.01127,0.0037,0.01,0.01012,0.00709,0.00826
0.00823,0.0093,0.00941,0.01166,0.89424,0.00811,0.00899,0.00948,0.00772,0.00743,0.00727,0.00245,0.00642,0.00754,0.00728,0.00756,0.00883,0.0035,0.00748,0.00748,0.00603,0.00642
0.00908,0.00771,0.00918,0.01336,0.81214,0.00757,0.00863,0.00791,0.00796,0.00765,0.00751,0.00215,0.00628,0.00648,0.00802,0.00709,0.00775,0.0038,0.00751,0.0065,0.00636,0.00572
0.01027,0.00959,0.00916,0.13952,0.78137,0.01029,0.01416,0.01076,0.01232,0.01166,0.00925,0.00256,0.00839,0.008,0.00832,0.00785,0.00855,0.00382,0.01019,0.00931,0.00808,0.007
0.01088,0.01217,0.01174,0.09082,0.57518,0.01227,0.01432,0.01354,0.01362,0.0136,0.01156,0.00251,0.01148,0.0131,0.01029,0.01105,0.01252,0.00425,0.01,0.0107,0.01056,0.01246
0.01053,0.01362,0.01098,0.04959,0.84241,0.01028,0.01038,0.00989,0.01182,0.01053,0.00881,0.00288,0.00883,0.01073,0.0107,0.01213,0.0118,0.00341,0.00861,0.00908,0.00768,0.00991
0.00838,0.00817,0.00799,0.06088,1.08893,0.00813,0.01027,0.01125,0.0145,0.01567,0.00679,0.00217,0.00691,0.00793,0.00791,0.00719,0.00854,0.00495,0.00965,0.01006,0.00675,0.00699
0.01211,0.01068,0.01035,0.12569,1.01666,0.00998,0.01283,0.01252,0.02058,0.02151,0.01019,0.00245,0.00976,0.00984,0.01072,0.00925,0.00961,0.00405,0.00943,0.00918,0.00984,0.01052
0.01266,0.01445,0.01248,0.03628,1.30603,0.014,0.01221,0.01167,0.02881,0.02274,0.01248,0.00243,0.01064,0.01293,0.01301,0.01142,0.0115,0.00389,0.00918,0.00922,0.01008,0.01135
0.01202,0.01311,0.01417,0.01573,1.11152,0.01485,0.00842,0.00987,0.0265,0.02366,0.01377,0.00264,0.00811,0.00911,0.00878,0.00866,0.00879,0.00356,0.00762,0.00787,0.00748,0.00809
0.015,0.01358,0.01534,0.04433,1.00301,0.01546,0.01131,0.01088,0.02642,0.02778,0.01714,0.00319,0.01283,0.01433,0.0123,0.0117,0.01129,0.00407,0.00834,0.00767,0.01025,0.01099
0.01175,0.0129,0.01288,0.04349,1.52497,0.01415,0.01297,0.01153,0.0257,0.02699,0.01326,0.00243,0.00979,0.01151,0.01088,0.01102,0.01012,0.00401,0.00961,0.00978,0.00922,0.01137
0.01264,0.01206,0.01212,0.03497,1.43634,0.01093,0.01169,0.01149,0.02898,0.02386,0.01151,0.00319,0.01189,0.01309,0.01205,0.01231,0.01232,0.00438,0.01049,0.00982,0.01088,0.0119
0.01905,0.01612,0.0194,0.03812,1.50812,0.01508,0.01545,0.01432,0.02586,0.02868,0.01629,0.00286,0.01555,0.01522,0.01752,0.01463,0.01706,0.00399,0.01334,0.01215,0.0143,0.01375
0.01734,0.01698,0.01881,0.03289,0.85379,0.01825,0.01511,0.01462,0.0281,0.02506,0.01781,0.00239,0.01485,0.01624,0.01408,0.01419,0.01527,0.00374,0.01382,0.01239,0.01391,0.01407
0.0199,0.02431,0.02719,0.04549,0.90305,0.02129,0.01638,0.0163,0.02613,0.0237,0.02027,0.00227,0.01374,0.01591,0.01669,0.01706,0.0186,0.00378,0.01427,0.01416,0.01456,0.01624
0.01207,0.01333,0.01433,0.03687,0.84399,0.01287,0.01066,0.01105,0.02634,0.01966,0.01229,0.00233,0.01153,0.01206,0.01167,0.01263,0.01281,0.00356,0.00927,0.00929,0.01042,0.0121
0.01061,0.01089,0.0127,0.0287,0.86975,0.01079,0.00832,0.00912,0.02138,0.01883,0.01065,0.00217,0.00989,0.01061,0.00963,0.01084,0.01202,0.00364,0.0076,0.00832,0.0084,0.00973
0.01008,0.00912,0.01231,0.01851,1.19658,0.00932,0.00881,0.00711,0.02137,0.01812,0.01137,0.00239,0.00939,0.00967,0.00951,0.00922,0.00981,0.00288,0.00703,0.00636,0.00785,0.00842
0.01137,0.01047,0.01135,0.0299,0.91263,0.00998,0.01181,0.01167,0.02137,0.01814,0.00998,0.00284,0.01144,0.01223,0.01084,0.0106,0.01154,0.00362,0.0097,0.00923,0.00998,0.01009
0.01442,0.01371,0.01717,0.04117,0.98616,0.01574,0.01274,0.01168,0.02123,0.01908,0.01646,0.00237,0.01151,0.01266,0.01223,0.01172,0.01203,0.00284,0.01115,0.01002,0.01127,0.01156
0.01317,0.0126,0.01394,0.01891,0.95343,0.01046,0.01006,0.01039,0.01424,0.01412,0.01064,0.00219,0.01227,0.01266,0.01313,0.01194,0.01278,0.00309,0.0094,0.00971,0.01018,0.01049
0.01258,0.01309,0.01343,0.0081,1.32799,0.01227,0.00891,0.01024,0.01216,0.01499,0.01156,0.00194,0.01122,0.01114,0.0112,0.01184,0.012,0.00292,0.00906,0.00988,0.00943,0.00984
0.01391,0.01495,0.01725,0.00675,0.89554,0.01354,0.00791,0.00986,0.01057,0.01099,0.01463,0.00209,0.01252,0.01342,0.01352,0.01321,0.01514,0.00342,0.00816,0.0091,0.00926,0.01012
0.01382,0.0156,0.01964,0.01013,0.62243,0.01635,0.00941,0.00936,0.01223,0.01043,0.02282,0.00252,0.00934,0.0093,0.01139,0.01075,0.01222,0.00309,0.00839,0.00851,0.00875,0.00928
0.01178,0.01216,0.01422,0.00582,0.73752,0.00978,0.00721,0.01039,0.01137,0.01461,0.01145,0.00301,0.01123,0.01096,0.0128,0.01178,0.01416,0.00387,0.0065,0.00758,0.00855,0.00875
0.00825,0.01008,0.00999,0.00507,0.90031,0.0082,0.00525,0.00744,0.00967,0.01009,0.00791,0.0028,0.0084,0.00891,0.00934,0.00961,0.00973,0.00382,0.00636,0.00544,0.00781,0.00765
0.01068,0.0115,0.01137,0.00812,0.86898,0.00892,0.00814,0.00923,0.0124,0.01057,0.00904,0.00247,0.00845,0.00982,0.01,0.01111,0.01055,0.0036,0.00759,0.00845,0.00763,0.00873
0.01117,0.01141,0.0125,0.00716,0.58758,0.01144,0.00949,0.01045,0.01844,0.01221,0.01162,0.00247,0.01006,0.01059,0.01023,0.0108,0.01145,0.00372,0.00886,0.00955,0.00925,0.00888
0.01031,0.01069,0.01151,0.00695,0.68378,0.00961,0.00791,0.00832,0.01254,0.0084,0.0091,0.0025,0.00809,0.01008,0.01,0.00944,0.01061,0.00356,0.00724,0.00773,0.00754,0.00838
0.00813,0.00945,0.00979,0.01021,0.72993,0.00887,0.00865,0.009,0.01014,0.00756,0.00728,0.00293,0.00636,0.00758,0.00748,0.00822,0.00852,0.00346,0.00718,0.00736,0.00658,0.0064
0.01056,0.01008,0.01355,0.0083,0.78799,0.00754,0.00814,0.00717,0.01016,0.0073,0.00857,0.00194,0.00755,0.00785,0.00916,0.00939,0.0109,0.00342,0.0074,0.00617,0.00738,0.00665
0.01051,0.01117,0.0138,0.00611,0.78236,0.01019,0.00625,0.00796,0.00801,0.00746,0.0109,0.00192,0.00902,0.00943,0.00967,0.00988,0.01096,0.00348,0.00652,0.00656,0.00675,0.00714
0.00906,0.00955,0.01059,0.00622,0.70944,0.00981,0.0056,0.0073,0.01025,0.00757,0.01246,0.00194,0.00644,0.00752,0.00807,0.00768,0.00803,0.00339,0.00554,0.00681,0.00605,0.00703
0.0116,0.01064,0.01389,0.0131,0.7499,0.01076,0.01075,0.01037,0.00924,0.00865,0.01063,0.00248,0.00943,0.01148,0.01099,0.01072,0.01179,0.00382,0.00913,0.00867,0.00808,0.00826
0.00967,0.00975,0.01177,0.01809,1.17357,0.00873,0.01135,0.01018,0.01125,0.00781,0.00861,0.00278,0.01232,0.01393,0.01061,0.01129,0.01229,0.00241,0.00867,0.00752,0.00796,0.0089
0.00957,0.00996,0.01162,0.00752,0.66426,0.00834,0.00701,0.00709,0.00869,0.00726,0.01082,0.00223,0.00872,0.00985,0.00863,0.00877,0.00987,0.00307,0.00709,0.00556,0.00746,0.00609
0.01211,0.01305,0.01563,0.00695,0.71739,0.01349,0.00624,0.00769,0.01435,0.01046,0.02067,0.00245,0.00785,0.00896,0.00894,0.00871,0.01025,0.0036,0.00615,0.00681,0.00623,0.00712
0.0084,0.00819,0.00843,0.0091,0.59226,0.00864,0.009,0.00974,0.00809,0.00762,0.00863,0.00237,0.00726,0.00795,0.00797,0.00785,0.00791,0.00352,0.00779,0.00773,0.00759,0.0063
0.00922,0.00961,0.0109,0.01064,0.61831,0.00957,0.00998,0.00967,0.00824,0.00873,0.01019,0.00252,0.00929,0.01062,0.00851,0.00992,0.00982,0.00368,0.00837,0.00736,0.00691,0.00775
0.00781,0.00844,0.00979,0.00752,0.69824,0.0082,0.00703,0.00732,0.00742,0.00736,0.00809,0.00223,0.00627,0.00826,0.00783,0.00797,0.00889,0.00325,0.0066,0.00644,0.00579,0.00677
0.00914,0.00927,0.00982,0.00878,0.66242,0.00871,0.00849,0.0089,0.00824,0.00781,0.00769,0.00231,0.00741,0.0083,0.00882,0.00822,0.00922,0.00381,0.00798,0.00693,0.00708,0.00718
0.00887,0.00941,0.00863,0.00927,0.66467,0.00787,0.00959,0.00875,0.00882,0.0088,0.00875,0.00268,0.00699,0.00812,0.0076,0.00877,0.00867,0.00343,0.00777,0.00794,0.00652,0.00759
0.00906,0.00941,0.00943,0.00527,0.75272,0.00841,0.00754,0.00888,0.01053,0.00945,0.00855,0.00227,0.0096,0.01013,0.00951,0.00994,0.01056,0.00391,0.00759,0.00816,0.00911,0.00898
0.00922,0.00945,0.00951,0.00636,0.92838,0.00904,0.0072,0.00943,0.00813,0.01049,0.00914,0.00192,0.00801,0.009,0.0093,0.00887,0.00955,0.00364,0.00753,0.00781,0.00846,0.00804
0.00965,0.01035,0.01006,0.01425,0.85507,0.01082,0.01386,0.01367,0.01261,0.01627,0.00928,0.00315,0.00951,0.00933,0.00988,0.00935,0.00982,0.00528,0.01062,0.01097,0.00949,0.00863
0.01301,0.01203,0.01508,0.00962,0.77366,0.01139,0.01093,0.01161,0.01163,0.01224,0.01381,0.00229,0.01008,0.01098,0.0107,0.01057,0.01137,0.00411,0.00943,0.00863,0.00857,0.00877
0.01061,0.01184,0.01411,0.00644,1.0553,0.01246,0.00686,0.00881,0.00793,0.00938,0.01464,0.002,0.00736,0.00836,0.00826,0.00924,0.0091,0.00317,0.00762,0.00771,0.00693,0.00765
0.01047,0.01055,0.01005,0.01536,0.6764,0.00973,0.01273,0.01189,0.01037,0.01121,0.00942,0.00268,0.0083,0.01006,0.00916,0.00894,0.00939,0.00358,0.01091,0.01009,0.00779,0.00834
0.01084,0.01149,0.01217,0.04644,0.54183,0.01387,0.01924,0.01575,0.01619,0.01705,0.01478,0.00268,0.00984,0.01102,0.0101,0.00996,0.01088,0.00327,0.01143,0.01074,0.00832,0.00857
0.00936,0.00932,0.00963,0.01878,0.56952,0.00751,0.01068,0.00808,0.00917,0.00781,0.00806,0.00227,0.00811,0.00908,0.00865,0.00881,0.00996,0.00272,0.00836,0.00695,0.00716,0.00732
0.00859,0.00937,0.01041,0.0067,1.02726,0.00765,0.00586,0.00675,0.00619,0.00617,0.00796,0.00235,0.00718,0.00785,0.00853,0.00832,0.00846,0.00329,0.00562,0.00597,0.00626,0.00646
0.00771,0.00803,0.00852,0.01001,0.6705,0.00773,0.00874,0.00904,0.00777,0.00863,0.00783,0.00225,0.00617,0.00826,0.00732,0.00785,0.008,0.0038,0.00714,0.0072,0.0063,0.00642
0.01175,0.01105,0.01302,0.03059,0.44463,0.01496,0.01679,0.0141,0.01556,0.01748,0.01298,0.00293,0.00823,0.00966,0.00943,0.00931,0.00968,0.00442,0.01056,0.00964,0.00755,0.00745
0.00805,0.00791,0.00921,0.01233,0.71657,0.00806,0.00915,0.00907,0.00941,0.0089,0.00796,0.00251,0.008,0.0083,0.00775,0.00783,0.00785,0.00364,0.00693,0.0076,0.00654,0.00691
0.00707,0.00752,0.00736,0.00801,1.50189,0.00611,0.00642,0.00558,0.00641,0.00597,0.00607,0.00194,0.00595,0.00595,0.00714,0.0064,0.00703,0.003,0.0054,0.00566,0.00568,0.00517
0.01165,0.01326,0.01654,0.01267,0.80258,0.01259,0.00993,0.01048,0.00935,0.00943,0.01304,0.00233,0.00646,0.00769,0.00914,0.00909,0.01023,0.00342,0.00739,0.00833,0.00655,0.00722
0.01936,0.01815,0.0245,0.03213,0.67874,0.01954,0.01662,0.01451,0.01691,0.01834,0.02751,0.0029,0.01195,0.01265,0.01414,0.01295,0.0152,0.00446,0.01091,0.01115,0.0098,0.01093
0.01064,0.01076,0.01155,0.02291,0.85293,0.00969,0.01277,0.01255,0.00939,0.01006,0.00984,0.00221,0.00957,0.01133,0.01026,0.00993,0.01064,0.0039,0.0101,0.00955,0.00885,0.00936
0.01059,0.00992,0.01108,0.00874,1.14993,0.00977,0.00838,0.00883,0.00853,0.00803,0.00932,0.00217,0.00689,0.00762,0.00895,0.00781,0.00893,0.00319,0.00809,0.00771,0.00717,0.00619
0.0117,0.01338,0.01317,0.01015,0.73689,0.01203,0.00976,0.00916,0.01101,0.02084,0.01221,0.00237,0.00874,0.00974,0.0106,0.01164,0.01185,0.0038,0.00834,0.00769,0.00787,0.00761
0.01395,0.01327,0.01653,0.03727,0.559,0.01323,0.01422,0.01326,0.01334,0.01436,0.01709,0.00332,0.01049,0.01238,0.01037,0.01114,0.01207,0.00501,0.00992,0.01169,0.00779,0.00933
0.01016,0.00954,0.01029,0.0256,0.88084,0.00911,0.01134,0.0113,0.0102,0.00958,0.00923,0.00231,0.00811,0.01041,0.00906,0.00918,0.00959,0.00401,0.00916,0.0095,0.00777,0.00765
0.1383,0.0474,0.07051,0.00715,5.05604,0.09496,0.02383,0.02588,0.09262,0.29977,0.06586,0.00236,0.0384,0.06682,0.22756,0.03654,0.04012,0.00627,0.01547,0.03871,0.00871,0.03416
0.00968,0.00894,0.01049,0.03939,0.49366,0.00935,0.00901,0.0107,0.00948,0.00896,0.00894,0.00235,0.00746,0.00724,0.08248,0.00595,0.00732,0.00284,0.0081,0.00595,0.00722,0.00561
0.0109,0.00703,0.00842,0.08904,0.50069,0.00639,0.00795,0.00725,0.00748,0.00773,0.00681,0.00207,0.00634,0.00587,0.57168,0.00648,0.00857,0.00253,0.00851,0.00482,0.00798,0.00497
0.01403,0.00691,0.00695,0.03742,0.48867,0.00677,0.00609,0.00755,0.00783,0.00687,0.00667,0.00172,0.00626,0.00583,0.17348,0.00593,0.00627,0.0027,0.00605,0.00468,0.00658,0.00423
0.01093,0.00665,0.00779,0.00517,1.03115,0.00615,0.0045,0.00921,0.00716,0.00509,0.00681,0.00248,0.0055,0.00542,0.06841,0.00542,0.00659,0.00202,0.00554,0.00374,0.00531,0.00432
0.01309,0.00572,0.00699,0.00692,0.67108,0.00572,0.00649,0.01178,0.00757,0.00601,0.00572,0.00194,0.00534,0.00493,0.05373,0.00542,0.00613,0.00272,0.00628,0.00417,0.00616,0.00446
0.01559,0.01085,0.01363,0.16146,0.68369,0.00952,0.00851,0.00815,0.01037,0.01116,0.01193,0.00241,0.00948,0.01007,0.04682,0.00956,0.0115,0.00258,0.00892,0.00575,0.00921,0.00761
0.0165,0.00719,0.00807,0.15184,0.56913,0.00773,0.00869,0.00687,0.01068,0.01215,0.00766,0.00211,0.00822,0.00785,0.05179,0.00639,0.00903,0.0029,0.00775,0.00544,0.00904,0.00611
0.0147,0.0082,0.00988,0.04551,0.5381,0.00681,0.00662,0.00591,0.00791,0.00809,0.00732,0.00293,0.00783,0.00753,0.04217,0.00777,0.01076,0.00202,0.00621,0.00466,0.00695,0.00507
0.01837,0.00949,0.00885,0.03353,0.61713,0.00706,0.00529,0.00866,0.00679,0.00816,0.00746,0.00253,0.0063,0.00628,0.04116,0.01044,0.00854,0.0026,0.00597,0.00536,0.0066,0.00687
0.01078,0.00555,0.0072,0.07395,0.60048,0.00626,0.00884,0.0173,0.00902,0.00841,0.00673,0.00198,0.00605,0.00607,0.04526,0.00551,0.00549,0.0029,0.00804,0.00507,0.00618,0.00484
0.01033,0.0065,0.00851,0.15675,0.42045,0.00572,0.00906,0.00828,0.00951,0.0107,0.00634,0.00188,0.00681,0.0063,0.04005,0.0061,0.008,0.00217,0.00802,0.00483,0.00646,0.00476
0.00908,0.00685,0.00779,0.09283,0.59268,0.00624,0.00637,0.00673,0.0081,0.00713,0.00749,0.00209,0.00661,0.00702,0.03906,0.00665,0.00703,0.00217,0.00634,0.00431,0.00548,0.00444
0.01035,0.00617,0.00599,0.01151,0.62917,0.00523,0.00583,0.00781,0.00673,0.00644,0.00556,0.00176,0.00529,0.00591,0.03605,0.0055,0.00619,0.00262,0.00607,0.00427,0.0053,0.00419
0.01125,0.00681,0.00798,0.00924,0.55586,0.00626,0.00743,0.01084,0.00859,0.00738,0.00749,0.00248,0.00685,0.00657,0.04175,0.00599,0.00726,0.00227,0.00777,0.00489,0.00657,0.00479
0.00963,0.00806,0.00859,0.03517,0.48208,0.00757,0.01013,0.01506,0.00877,0.00968,0.00765,0.00225,0.00765,0.00767,0.03575,0.00796,0.00849,0.00239,0.00888,0.00558,0.00853,0.00532
0.0085,0.00699,0.00781,0.09786,0.5161,0.00656,0.00779,0.0087,0.00875,0.00846,0.00675,0.00198,0.00652,0.00593,0.03823,0.00681,0.00691,0.0027,0.00845,0.00499,0.00713,0.00509
0.00775,0.00574,0.00636,0.01709,0.54111,0.00492,0.00611,0.00906,0.00599,0.00554,0.00521,0.00225,0.00529,0.00556,0.04093,0.00525,0.00601,0.00167,0.00713,0.00394,0.00597,0.00444
0.01459,0.00528,0.00597,0.00814,0.53166,0.00421,0.0054,0.0082,0.0062,0.0053,0.00573,0.00219,0.00558,0.00564,0.03135,0.00493,0.00564,0.00237,0.00646,0.00397,0.00552,0.00403
0.00923,0.007,0.00808,0.008,0.4402,0.00677,0.00646,0.00861,0.00749,0.00573,0.00696,0.00245,0.00775,0.00759,0.02377,0.00757,0.00814,0.00303,0.0063,0.0045,0.00681,0.00489
0.00865,0.00613,0.00652,0.0083,0.40275,0.0057,0.0072,0.0115,0.00642,0.00546,0.00611,0.00219,0.00537,0.00447,0.01475,0.00544,0.00597,0.00237,0.00808,0.00507,0.00652,0.00423
0.00613,0.00611,0.00632,0.00949,0.55434,0.00564,0.00671,0.01407,0.00589,0.00614,0.00554,0.00206,0.00542,0.00515,0.01071,0.00525,0.0063,0.00231,0.00757,0.00464,0.0064,0.00405
0.00829,0.0063,0.0064,0.06082,0.55741,0.00585,0.00392,0.00995,0.00542,0.00529,0.00597,0.00198,0.00526,0.00524,0.01213,0.00528,0.00579,0.00247,0.00515,0.00425,0.00581,0.00436
0.00818,0.00708,0.00775,0.02014,0.51226,0.00624,0.0047,0.00814,0.00648,0.00577,0.0065,0.0026,0.00483,0.00579,0.01008,0.00575,0.00702,0.00198,0.00481,0.00368,0.00573,0.00454
0.00902,0.00765,0.00794,0.02311,0.50237,0.00677,0.00561,0.00726,0.00855,0.00849,0.00749,0.0027,0.0061,0.00657,0.01119,0.00634,0.00771,0.00256,0.00534,0.00469,0.0061,0.00517
0.00939,0.00648,0.00697,0.00645,0.45041,0.00566,0.00573,0.00968,0.00623,0.0058,0.00626,0.00206,0.00599,0.00634,0.01067,0.00546,0.00689,0.00256,0.00657,0.00397,0.00613,0.00448
0.0084,0.00642,0.00646,0.00695,0.67947,0.00538,0.0078,0.0191,0.0065,0.00552,0.0063,0.00219,0.00552,0.00607,0.01045,0.00548,0.00669,0.00251,0.00796,0.00423,0.00683,0.00393
0.00984,0.00644,0.00716,0.00583,0.74642,0.00501,0.00548,0.01055,0.00683,0.00698,0.00566,0.00231,0.00534,0.00591,0.00969,0.0064,0.0081,0.00225,0.00533,0.00374,0.00654,0.00462
0.01012,0.00628,0.00687,0.00611,0.77814,0.00782,0.00786,0.00904,0.02109,0.03165,0.00898,0.0042,0.00589,0.0064,0.01168,0.00597,0.00672,0.00348,0.0056,0.00436,0.00667,0.00503
0.00744,0.0073,0.00734,0.00491,0.63814,0.01013,0.00732,0.00801,0.06862,0.11231,0.0109,0.00479,0.00638,0.00652,0.00993,0.0062,0.00773,0.00425,0.00624,0.00528,0.00732,0.00491
