"C3","C4","CZ","EMG","F3","F4","F7","F8","FP1","FP2","FZ","LOG","O1","O2","P3","P4","PZ","ROG","T3","T5","T6"
1.39711,1.58045,2.04373,51.02326,1.02264,1.39307,0.43811,1.08639,0.51861,0.86016,1.32709,0.22938,1.41578,1.0108,1.86889,1.89391,2.51104,0.31982,0.66119,1.01434,1.13916
1.19521,0.96703,1.85829,29.38079,0.84626,0.87926,0.44353,0.65267,0.46408,0.60715,1.11365,0.18807,0.93028,0.70746,1.2114,0.96071,1.46049,0.19994,0.56239,0.71337,0.59963
0.64689,0.74738,1.1099,18.78111,0.56181,0.72887,0.35204,0.64252,0.44432,0.63263,0.7677,0.16228,0.76551,0.7388,0.6542,0.88742,0.89369,0.18586,0.33706,0.47512,0.64684
0.4989,0.76035,0.85625,13.64537,0.3793,0.62994,0.2492,0.57252,0.30618,0.5102,0.61814,0.14944,0.64138,0.57711,0.74776,0.74271,0.85278,0.14814,0.28412,0.53216,0.55128
0.77326,0.86949,1.20261,21.37673,0.55318,0.71221,0.35383,0.62899,0.39261,0.58969,0.77474,0.16668,0.85832,0.68499,0.93336,1.01331,1.24124,0.20265,0.38159,0.61063,0.71807
0.65374,0.85213,1.05772,9.19079,0.5413,0.76997,0.33948,0.67041,0.44534,0.6182,0.78874,0.18603,0.75056,0.65712,0.72292,0.92307,1.0017,0.20506,0.36805,0.49424,0.69539
0.66063,0.78791,1.00654,4.73375,0.53821,0.78494,0.31664,0.71727,0.39593,0.60082,0.77607,0.16054,0.79348,0.6347,0.77901,0.76171,0.89838,0.2071,0.39445,0.52007,0.60046
0.54625,0.67166,0.87142,4.03087,0.5098,0.62999,0.31726,0.62056,0.39429,0.55947,0.68144,0.17522,0.82255,0.68026,0.59586,0.68631,0.92877,0.19492,0.3297,0.44523,0.51162
0.50368,0.48701,0.72485,2.41041,0.42373,0.6317,0.30574,0.7616,0.32659,0.75715,0.56242,0.11089,0.96069,0.87377,0.71568,0.75015,0.90304,0.18759,0.3698,0.45149,0.55246
0.60413,0.79511,0.93112,0.58756,0.47415,0.73219,0.28974,0.7419,0.33671,0.60542,0.63303,0.12063,0.75305,0.81698,0.60302,0.96244,0.96268,0.25416,0.3016,0.41414,0.72047
0.46442,0.59671,0.76875,0.36521,0.44114,0.64219,0.3259,0.58162,0.40538,0.57743,0.65489,0.1402,0.73317,0.64175,0.56003,0.74571,0.84475,0.15796,0.32866,0.39843,0.53268
0.55093,0.67972,0.87351,0.19231,0.43537,0.66288,0.24943,0.60543,0.32646,0.57755,0.61417,0.10789,0.75872,0.7303,0.60432,0.88798,0.90278,0.19273,0.29332,0.45136,0.59418
0.56754,0.53549,0.78735,0.35655,0.46267,0.57616,0.28459,0.55433,0.33552,0.51861,0.64231,0.13025,0.60068,0.60998,0.55093,0.55879,0.70696,0.16346,0.32018,0.4194,0.44481
0.87033,1.00376,1.28392,0.56161,0.67575,0.84392,0.3402,0.76708,0.40659,0.68756,0.88143,0.1841,0.87828,0.69377,0.96463,1.01713,1.16495,0.25835,0.43121,0.65543,0.64909
0.65998,0.69061,1.08052,0.54491,0.52275,0.6272,0.32387,0.53048,0.40386,0.58441,0.71061,0.16841,0.77787,0.67665,0.79466,0.93986,1.07796,0.15435,0.32432,0.49833,0.56447
0.57816,0.77567,0.97,0.49755,0.48153,0.68581,0.29272,0.61231,0.36528,0.53702,0.68992,0.14867,0.56621,0.56171,0.64718,0.73727,0.89916,0.18057,0.31608,0.41818,0.50559
0.71402,0.71956,0.99604,0.49537,0.55315,0.74802,0.33135,0.66475,0.38064,0.62044,0.77428,0.16252,0.67132,0.62287,0.73996,0.85595,1.03691,0.17301,0.37837,0.48326,0.57552
0.48108,0.66141,0.79904,0.52821,0.39589,0.5855,0.26942,0.58366,0.31231,0.57324,0.57056,0.12555,0.68391,0.60975,0.61795,0.78818,0.9521,0.18684,0.29949,0.43278,0.56216
0.85362,0.75877,1.18467,0.49263,0.56519,0.71675,0.30424,0.59305,0.34043,0.5309,0.82834,0.1314,0.73177,0.68689,0.71623,0.93146,1.09739,0.18576,0.39525,0.46034,0.54696
0.79772,0.79636,1.15642,0.56012,0.59345,0.70025,0.34223,0.56378,0.38426,0.53041,0.80049,0.16291,0.73887,0.68318,0.68431,0.75084,1.0758,0.15527,0.38513,0.47535,0.47958
1.34511,1.47515,2.1597,0.53621,0.83753,0.90717,0.39463,0.61122,0.39425,0.52918,1.0132,0.17561,1.10769,0.84479,1.37241,1.64561,1.98616,0.17548,0.58884,0.78046,0.72875
0.57601,0.60706,0.8973,0.6164,0.42021,0.56828,0.27143,0.54586,0.36143,0.48963,0.6213,0.1364,0.91287,0.82729,0.68036,0.90185,0.92954,0.14929,0.33103,0.43508,0.65088
0.63405,0.75519,1.08027,0.58964,0.52981,0.65838,0.31051,0.598,0.33866,0.53787,0.7153,0.13507,0.65434,0.59013,0.70609,0.76567,0.98156,0.18789,0.34383,0.51819,0.57305
0.60434,0.61458,0.9835,0.45734,0.4808,0.65119,0.29275,0.52459,0.34543,0.53257,0.66065,0.10931,0.59755,0.62854,0.70538,0.78675,0.98071,0.20236,0.34819,0.47843,0.56602
0.58022,0.65724,0.89452,0.52423,0.43192,0.54352,0.29879,0.50909,0.33556,0.45262,0.54813,0.14172,0.67328,0.61644,0.65224,0.7837,0.92818,0.16901,0.34455,0.49258,0.48771
0.76854,0.77804,1.22368,0.50784,0.51356,0.73913,0.31117,0.59213,0.36308,0.53303,0.74595,0.12121,0.77319,0.63423,0.75694,0.79846,1.00654,0.15898,0.38956,0.49397,0.52765
0.65705,0.78185,1.15184,0.34339,0.55102,0.8189,0.28039,0.66207,0.34284,0.50305,0.85454,0.11813,0.60964,0.60202,0.57656,0.85258,0.94072,0.14072,0.30316,0.41899,0.57558
0.83564,0.93188,1.59844,0.21766,0.83069,1.17138,0.38545,0.83327,0.60963,0.78837,1.38097,0.22211,0.66123,0.61641,0.68398,0.8126,1.07379,0.26873,0.39657,0.45828,0.50792
0.81151,0.83909,1.29146,0.19638,0.82094,1.03867,0.49144,0.81587,0.68143,0.85111,1.13904,0.2892,0.70301,0.66642,0.6178,0.72545,0.87938,0.27709,0.39355,0.45062,0.50615
0.7816,0.86691,1.32139,0.19482,0.71828,0.94689,0.75291,0.85761,1.49942,1.70268,1.02066,0.4258,1.10503,0.92132,0.87302,1.17474,1.3392,0.72447,0.37208,0.55561,0.77986
0.8261,1.0246,1.41496,0.17546,0.74597,1.00546,0.6784,0.88775,1.5251,1.61438,1.06276,0.31882,0.95142,0.99256,0.8101,1.09073,1.19289,0.39997,0.43996,0.61941,0.86283
0.84263,1.19233,1.66472,0.18892,0.68421,1.23386,0.99492,1.11021,2.39481,3.39431,1.09522,0.40619,1.28571,1.07696,1.03977,1.29527,1.60165,0.88533,0.44437,0.70285,0.86104
0.94395,1.16729,1.61183,0.18263,0.80163,1.03735,0.8954,0.82326,2.00513,2.64515,1.0354,0.42087,1.44167,1.18292,1.111,1.58675,1.76598,0.45089,0.45587,0.7245,0.97811
0.67458,0.95712,1.22219,0.19918,0.58785,0.91685,0.68228,0.79858,1.54636,1.99347,0.84298,0.37205,0.89785,0.76797,0.79262,1.11038,1.19173,0.26987,0.3623,0.52393,0.72845
0.83388,1.00083,1.40891,0.1831,0.66425,0.88658,0.87336,0.7707,2.00525,2.55348,0.90196,0.60256,1.21525,1.04779,1.02497,1.23164,1.4952,0.56127,0.37258,0.72604,0.86693
0.80085,1.07811,1.20515,0.20182,0.80446,0.96947,0.61288,0.94406,1.0387,1.39848,0.95676,0.32362,0.93675,0.80841,0.85403,1.25725,1.34325,0.35108,0.38141,0.5257,0.82343
0.71154,0.73867,1.07206,0.16256,0.60733,0.81357,0.62026,0.71952,1.27357,1.77443,0.80458,0.20161,0.78781,0.78349,0.70616,0.89812,1.06544,0.19981,0.40547,0.44728,0.65907
0.71647,0.64377,1.04352,0.17926,0.57314,0.84495,0.46246,0.85256,1.08096,2.7114,0.83056,0.34551,0.69931,0.5779,0.7207,0.78621,1.06081,0.49232,0.35427,0.44367,0.54875
0.68148,0.78796,1.00268,0.17281,0.64174,0.79948,0.61893,0.85776,0.9143,1.53977,0.80172,0.61237,0.94599,0.70576,0.83426,0.93148,1.03383,2.13094,0.40679,0.51718,0.60494
0.84969,1.0367,1.47438,0.19286,0.64963,0.94105,0.53801,0.89328,0.9363,1.42465,0.98409,0.34194,0.98112,0.8415,0.90698,1.13049,1.40561,0.55756,0.41884,0.61046,0.7247
0.81,0.94173,1.20182,0.19065,0.80674,1.16106,0.92625,1.24167,1.70042,3.59477,1.02427,0.50643,0.78375,0.74104,0.72829,0.97008,1.0189,3.34703,0.46117,0.49631,0.75292
1.51527,1.50801,2.28762,0.18266,1.47447,1.87248,0.93345,1.54141,2.02266,3.40509,2.0697,0.49158,1.53569,1.01391,1.59052,1.70857,2.25974,1.6239,0.61237,0.90872,0.95797
0.64946,0.79619,1.00681,0.16532,0.57225,0.77192,0.57717,0.68162,1.08797,1.22149,0.7883,0.27983,0.85749,0.69759,0.81359,1.03627,1.101,0.36313,0.38069,0.54392,0.70871
0.64529,0.81937,1.10468,0.17724,0.55235,0.72766,0.7349,0.65901,1.8567,2.12979,0.79314,0.32311,0.92935,0.74136,0.87483,0.99669,1.28889,0.25409,0.35733,0.53878,0.75566
0.50345,0.70033,0.77448,0.18441,0.44573,0.66601,0.47399,0.69267,0.92818,1.49836,0.61102,0.16112,0.86412,0.67862,0.69247,0.84554,0.92439,0.22061,0.33105,0.51652,0.66958
0.56755,0.75977,0.81069,0.16849,0.51935,0.68673,0.44858,0.78395,0.83814,1.69572,0.67197,0.21151,0.72714,0.63758,0.66473,0.76044,0.87331,0.64934,0.35199,0.54197,0.48883
0.643,0.76201,1.11262,0.17279,0.60576,0.7896,0.49025,0.72356,0.90716,1.27712,0.83252,0.21916,0.8531,0.71181,0.7062,0.84037,1.07317,0.41424,0.38844,0.53006,0.53914
0.57278,0.79582,0.98874,0.17034,0.46304,0.72707,0.83391,0.72704,1.75513,2.02365,0.70278,0.28181,1.02128,0.91202,0.81066,1.04434,1.20739,0.54823,0.32775,0.61414,0.70017
0.54469,0.63101,0.80658,0.1851,0.46706,0.64689,0.35632,0.64763,0.53003,0.83446,0.6161,0.14969,0.86438,0.70879,0.70008,0.81829,0.90607,0.22918,0.33668,0.47409,0.53486
0.542,0.76979,0.91281,0.17161,0.42037,0.74015,0.68943,0.84406,1.67383,2.60175,0.61466,0.28484,0.94604,0.75181,0.74744,0.94142,1.02993,0.83435,0.30827,0.58364,0.7295
0.6286,0.68076,0.89079,0.1583,0.47391,0.62797,0.45385,0.75751,1.07671,1.76514,0.57573,0.25343,0.78032,0.64797,0.77546,0.85137,0.95643,0.72241,0.33963,0.56829,0.56103
0.62394,0.70365,1.00365,0.18588,0.56143,0.65746,0.67462,0.6565,1.43122,1.41954,0.73191,0.37766,0.9026,0.77298,0.74462,0.9416,1.13038,0.38928,0.41002,0.50263,0.74832
0.65786,0.63981,0.88702,0.16956,0.49735,0.67384,0.47995,0.73857,0.92752,1.54717,0.63893,0.2199,0.86333,0.70251,0.68878,0.82764,1.02936,0.37818,0.36896,0.48231,0.54568
0.64076,0.85441,1.07203,0.17566,0.5248,0.77516,0.63559,0.75291,1.80296,2.26039,0.74205,0.94822,1.05493,0.85889,0.82037,1.06123,1.23142,0.49328,0.37654,0.53036,0.72712
0.74988,0.7914,1.06848,0.18357,0.60019,0.703,0.74392,0.77645,1.15967,1.37711,0.70432,0.3149,0.77382,0.73808,0.79766,0.92108,1.06953,0.27663,0.40349,0.48752,0.67126
0.76727,0.81319,1.04732,0.15827,0.61119,0.76581,0.51007,0.78613,0.79557,1.3599,0.81737,0.31798,1.10423,0.79875,0.93507,1.05862,1.16828,0.86892,0.40493,0.70107,0.66156
0.79294,1.1336,1.37406,0.17599,0.83983,1.3004,1.43947,1.26456,3.10958,3.47488,1.1415,2.64187,1.0478,0.9114,0.88142,1.27316,1.36181,3.62873,0.45513,0.58922,0.89301
0.83469,1.0053,1.33905,0.18743,0.74842,1.23387,1.14017,1.60751,2.72168,5.16657,1.07158,1.86645,1.01005,0.9236,0.91461,1.29215,1.33735,7.30404,0.50575,0.62875,0.87008
0.68433,0.94972,1.11371,0.19822,0.8249,1.06442,1.59711,1.19582,4.11368,5.35671,0.96049,1.76575,1.14119,0.96846,0.9003,1.26172,1.40193,1.63016,0.44028,0.55433,0.80984
0.57472,0.68154,0.83225,0.18863,0.59776,0.83087,0.59173,0.89319,1.1636,2.0723,0.72108,0.46253,0.8775,0.74838,0.7158,0.86448,0.9208,1.14107,0.36293,0.49663,0.6858
0.54579,0.70145,0.88088,0.18269,0.46589,0.81584,0.39998,0.92657,0.86012,1.84387,0.67885,0.23965,0.73291,0.58537,0.65181,0.75391,0.90912,0.70817,0.32723,0.45222,0.48798
0.60915,0.58032,0.8602,0.17413,0.60575,0.69888,0.56518,0.64179,1.12936,1.29772,0.79988,0.32971,0.7186,0.72212,0.6653,0.84446,0.86252,0.52951,0.3307,0.46582,0.70328
0.61435,0.67463,1.00467,0.17165,0.52009,0.67834,0.6561,0.68401,1.33406,1.85949,0.7323,0.23316,0.83244,0.84243,0.67673,0.83171,0.91485,0.45387,0.376,0.52956,0.60958
0.50331,0.6436,0.81343,0.18067,0.52027,0.5607,0.49478,0.5619,0.93639,1.44154,0.61436,0.15186,0.77272,0.68817,0.63398,0.91317,0.9706,0.1855,0.27112,0.43314,0.67139
0.86792,0.64606,1.19342,0.18733,0.65398,0.73506,0.51483,0.6909,0.94144,1.60762,0.78182,0.27539,0.82495,0.68816,0.93372,0.81991,1.12926,0.40591,0.46604,0.58149,0.53201
0.67211,0.88878,1.14508,0.20421,0.58794,0.92712,0.75796,0.86279,1.91248,3.84505,0.83869,0.2695,1.08753,0.86173,0.86954,1.03248,1.24875,0.36273,0.34007,0.63121,0.66784
0.66491,0.7114,1.06183,0.18147,0.62816,0.88663,0.72367,1.22057,1.895,3.73438,0.86701,0.4376,0.82003,0.73744,0.75818,0.94206,1.06937,1.09983,0.44066,0.51076,0.60677
0.55585,0.69262,0.8827,0.19047,0.45695,0.65103,0.49464,0.73059,1.49218,1.7586,0.6255,0.2823,0.64996,0.62261,0.66617,0.89018,0.96578,0.45039,0.30668,0.42817,0.56046
0.65116,0.66795,0.85811,0.18375,0.47968,0.69807,0.36085,0.65467,0.6719,0.99148,0.70185,0.18262,0.95426,0.8136,0.76345,0.97439,1.01861,0.22947,0.38607,0.49791,0.64373
0.41217,0.54056,0.63449,0.18954,0.39338,0.63494,0.32686,0.58352,0.52065,0.81239,0.56551,0.12584,0.68554,0.72067,0.48602,0.73845,0.68115,0.21627,0.28784,0.43789,0.57028
0.51344,0.51309,0.68839,0.17379,0.4313,0.58405,0.30954,0.54692,0.44611,0.72157,0.59612,0.11048,0.62868,0.63225,0.62345,0.71148,0.75649,0.17542,0.32974,0.42445,0.5299
0.5626,0.57348,0.76912,0.16688,0.44996,0.54878,0.34516,0.53663,0.46905,0.68854,0.63372,0.13684,0.61435,0.62772,0.63536,0.6202,0.67271,0.16083,0.36068,0.49632,0.54959
0.50588,0.68649,0.76654,0.19574,0.44016,0.60084,0.36532,0.68808,0.70738,1.14064,0.5727,0.1649,0.88288,0.76574,0.65817,1.01869,1.00684,0.21922,0.35143,0.47017,0.79818
0.52159,0.68023,0.83831,0.19833,0.47889,0.66313,0.34847,0.63302,0.59193,0.95426,0.71899,0.0989,0.57842,0.51644,0.58011,0.75113,0.76828,0.14619,0.30235,0.44715,0.49589
0.47301,0.65865,0.83416,0.17994,0.40099,0.76864,0.5659,0.82735,0.93635,1.34993,0.68527,0.53402,0.58451,0.67456,0.51301,0.67262,0.73261,0.78107,0.29088,0.38763,0.50042
0.73096,0.96302,1.13723,0.20621,0.7235,1.00478,1.35282,1.23744,2.78947,3.15937,0.90189,3.58833,1.05136,0.8627,0.79278,1.01532,1.19311,5.79934,0.43629,0.56736,0.76147
0.69955,0.69243,0.99767,0.18351,0.6126,0.7596,0.84383,1.02736,1.3626,2.36787,0.70754,1.23556,0.81395,0.74831,0.76768,0.86429,1.0395,3.91574,0.44769,0.55623,0.64338
0.9631,1.16733,1.49101,0.2869,0.67387,1.21219,1.12829,1.67228,2.32182,4.68464,0.95242,2.04706,1.18823,0.98273,1.06828,1.25528,1.52855,7.83538,0.47349,0.66837,0.80864
1.06301,1.44011,1.77295,0.19962,0.86393,1.56053,1.15679,2.04725,2.53276,5.74854,1.24536,2.0014,1.32275,0.94229,1.15377,1.59169,1.76634,9.18648,0.5263,0.73429,1.01009
0.9212,0.8468,1.13553,0.1908,0.8995,0.83766,1.18081,0.86273,2.28432,1.90595,0.91101,0.89563,0.94725,0.82594,0.77489,1.02998,1.19204,0.58318,0.49048,0.52419,0.7124
0.67865,1.03251,1.18376,0.19938,0.58592,1.20775,0.97748,1.25879,1.93743,3.12603,0.91024,1.11202,0.89484,0.87388,0.80069,1.07592,1.19065,2.03272,0.42029,0.55458,0.76467
0.81521,1.01561,1.31163,0.19986,0.78411,1.1423,0.90585,0.93258,1.88656,3.07884,1.05074,0.75241,0.93925,0.84985,0.76797,0.98618,1.20418,0.74823,0.419,0.55681,0.65274
0.64552,0.84187,1.03555,0.18139,0.67005,0.92457,0.72583,0.81618,1.76156,2.61457,0.88666,0.34139,0.75502,0.69059,0.69857,0.92773,0.92897,0.39972,0.35232,0.46982,0.5853
0.53812,0.67291,0.85958,0.19162,0.50139,0.74222,0.44536,0.79966,0.80739,1.74686,0.76253,0.13305,0.54446,0.616,0.53883,0.68048,0.78191,0.35775,0.33221,0.41441,0.56454
0.71047,0.9059,1.20834,0.18901,0.54371,0.95051,0.66269,1.08781,1.49769,3.37769,0.8018,0.55717,1.25059,0.98984,0.97701,1.26928,1.39194,1.99791,0.3676,0.60718,0.85165
0.69824,0.77919,0.99804,0.18369,0.66981,1.0068,0.70151,1.16791,1.75279,3.88197,0.87448,0.56781,1.1301,0.86658,0.91177,1.02248,1.1019,1.81029,0.42607,0.62294,0.74102
0.55306,0.75258,0.95486,0.17962,0.43129,0.77894,0.41936,0.70781,0.77698,1.03996,0.67524,0.13955,0.8983,0.69068,0.82739,0.85346,1.05635,0.21479,0.34831,0.53676,0.56639
0.68223,0.94399,1.1879,0.14809,0.64731,1.01863,0.83695,1.05636,2.26579,3.74715,0.95067,0.45055,1.30666,1.0984,0.99947,1.29751,1.41745,1.13864,0.38757,0.76267,0.88005
0.43879,0.64766,0.7223,0.18607,0.38218,0.57424,0.55792,0.61439,1.12482,1.25367,0.52809,0.21317,0.84077,0.70549,0.6601,0.85798,0.90654,0.22129,0.29027,0.45594,0.58949
0.54396,0.68617,0.89002,0.1932,0.4661,0.76764,0.54197,0.82407,1.57474,2.99751,0.74326,0.41469,0.81086,0.62282,0.72326,0.80017,0.9557,0.90076,0.32486,0.50472,0.5035
0.5805,0.75435,0.97055,0.17788,0.50517,0.77445,0.53303,0.64946,1.14593,1.44675,0.77174,0.26362,0.71334,0.67094,0.64385,0.83609,0.86423,0.29883,0.29722,0.43587,0.59532
0.50914,0.62944,0.73359,0.18984,0.38929,0.52405,0.37469,0.57162,0.67171,1.0124,0.50916,0.18635,0.66352,0.53817,0.64218,0.74628,0.87309,0.19156,0.32261,0.43023,0.45903
0.48189,0.49758,0.7238,0.1992,0.45578,0.58921,0.36333,0.63211,0.68096,1.1327,0.62152,0.19066,0.78229,0.68177,0.59315,0.67491,0.7801,0.24463,0.28227,0.44627,0.50211
0.54405,0.70916,0.86186,0.1925,0.48189,0.73433,0.69473,0.74352,1.8124,1.86534,0.67649,0.65746,0.92639,0.89475,0.80022,0.97769,0.97844,0.34981,0.34493,0.61365,0.77959
0.56589,0.79556,1.03344,0.1837,0.55418,0.9047,0.81888,0.83165,2.15504,2.82419,0.84513,0.45828,0.85568,0.7305,0.79576,0.92568,0.96955,0.42682,0.32286,0.56956,0.73225
0.55054,0.58495,0.93786,0.17499,0.44257,0.65901,0.33318,0.61545,0.52198,0.85737,0.71792,0.1414,0.65644,0.61809,0.60085,0.70628,0.85408,0.19882,0.33348,0.42978,0.43913
0.51199,0.69298,0.85601,0.19167,0.38399,0.61256,0.37294,0.55319,0.73725,0.82027,0.63138,0.12043,0.89339,0.69765,0.64824,0.98927,0.96063,0.15582,0.26938,0.43102,0.57445
0.61555,0.65231,0.91234,0.20784,0.51751,0.70147,0.51881,0.8326,1.44544,2.22848,0.63258,0.26461,0.82153,0.70669,0.80517,0.88103,1.06613,0.53925,0.32932,0.56365,0.58362
0.61087,0.88122,1.02706,0.19169,0.54587,0.89125,1.02156,1.14286,2.35958,4.54691,0.75376,1.51565,1.03405,0.86458,0.8153,1.02735,1.11859,3.22572,0.35557,0.58628,0.77346
0.72393,0.91457,1.23663,0.21549,0.69214,1.04633,1.10164,1.27401,3.30824,6.25263,0.88469,1.21413,1.0597,1.01198,0.92067,1.26152,1.41648,2.62271,0.43505,0.7063,0.86165
0.67612,0.76364,1.02449,0.19681,0.57819,0.77632,0.63983,1.01085,1.70466,3.02704,0.76276,0.5035,0.8923,0.81211,0.76563,0.97307,1.05406,0.72133,0.39782,0.55636,0.62688
0.51341,0.74923,0.8002,0.18814,0.4348,0.75048,0.52836,0.83879,0.81306,1.28597,0.60338,0.26596,0.60282,0.60993,0.5431,0.82333,0.82768,0.26205,0.3415,0.43087,0.55335
0.54313,0.64584,0.88691,0.19591,0.45042,0.68227,0.54558,0.82931,1.36422,1.91304,0.65594,0.26154,0.76419,0.74531,0.68446,0.86016,0.8933,0.36955,0.3236,0.49809,0.63663
0.61952,0.70986,0.92367,0.18042,0.57139,0.73928,0.59632,0.66449,1.05341,1.11456,0.779,0.23409,0.74993,0.69355,0.63663,0.88914,0.97094,0.21148,0.34132,0.42035,0.58064
0.71142,0.75572,0.99739,0.1752,0.65864,0.85443,0.97763,1.01376,2.76964,3.75681,0.73166,1.2611,1.16426,1.04964,0.93447,1.18637,1.27752,0.65086,0.43823,0.66361,0.83842
0.52448,0.69796,0.82414,0.19054,0.42914,0.75147,0.6208,0.74635,1.23594,1.73597,0.61366,0.52846,0.6145,0.61787,0.64811,0.67671,0.8658,0.49869,0.31586,0.46991,0.52043
0.55147,0.54984,0.86858,0.18565,0.47869,0.64864,0.58065,0.81376,1.69671,2.61214,0.62772,0.35818,0.90444,0.78388,0.7713,0.86779,1.03648,0.61402,0.33128,0.55877,0.59928
0.49723,0.59406,0.73926,0.1713,0.40998,0.59218,0.38215,0.71823,0.98493,1.5901,0.55335,0.20634,0.78737,0.70561,0.69961,0.75771,0.88958,0.38282,0.30131,0.50219,0.5667
0.53181,0.63542,0.67275,0.1836,0.38641,0.61557,0.28661,0.61886,0.51163,0.77861,0.55616,0.13566,0.56363,0.54878,0.51793,0.82722,0.82404,0.16153,0.33559,0.40784,0.53681
0.54442,0.54044,0.70366,0.18479,0.42954,0.54401,0.37476,0.53982,0.89512,1.154,0.54886,0.17607,0.84682,0.70304,0.75683,0.82027,0.96651,0.19905,0.3362,0.47621,0.52888
0.49054,0.50856,0.6462,0.19239,0.36324,0.5587,0.30897,0.60271,0.58608,0.86868,0.51166,0.10062,0.72406,0.6251,0.70785,0.65145,0.72478,0.19396,0.31478,0.51755,0.57119
0.55295,0.55502,0.90628,0.16737,0.4895,0.5414,0.3509,0.54749,0.55093,0.78386,0.63868,0.15576,0.60032,0.61495,0.62259,0.68155,0.86515,0.15462,0.3372,0.45314,0.48873
0.39442,0.47097,0.6355,0.18462,0.3542,0.57557,0.26514,0.65839,0.40973,0.74139,0.55002,0.10064,0.48145,0.56206,0.44043,0.55446,0.5573,0.16116,0.28253,0.35145,0.45062
0.42714,0.44928,0.59618,0.18874,0.32378,0.45089,0.24423,0.48679,0.3816,0.57403,0.44961,0.09266,0.51533,0.50524,0.52733,0.52155,0.60019,0.12887,0.26459,0.40205,0.39504
0.46167,0.54572,0.64232,0.17951,0.35968,0.57668,0.26001,0.63035,0.34838,0.67044,0.47277,0.09577,0.79659,0.70642,0.71634,0.7411,0.78414,0.209,0.32911,0.53772,0.50362
0.43211,0.50444,0.62274,0.20377,0.31912,0.52115,0.23939,0.53295,0.31695,0.5317,0.47251,0.09181,0.60271,0.55425,0.61261,0.5926,0.59163,0.15094,0.29666,0.44818,0.45991
0.40079,0.52058,0.63305,0.17831,0.34437,0.55104,0.24223,0.61518,0.29083,0.54039,0.49735,0.09588,0.48942,0.46536,0.44833,0.61274,0.57211,0.13899,0.25835,0.37193,0.44006
0.41459,0.47004,0.60368,0.19922,0.36536,0.46342,0.24448,0.47161,0.31414,0.43324,0.4998,0.09339,0.48767,0.52894,0.45404,0.5992,0.54497,0.09898,0.26629,0.35077,0.53002
0.48595,0.54947,0.6354,0.19494,0.41767,0.51796,0.30911,0.50207,0.32153,0.47012,0.58961,0.14024,0.66261,0.5959,0.5719,0.69324,0.65724,0.13258,0.33823,0.42893,0.64246
0.44136,0.43498,0.56554,0.19421,0.3482,0.45638,0.23758,0.42631,0.29938,0.45861,0.45994,0.09469,0.48241,0.46493,0.46502,0.45309,0.52017,0.13456,0.24826,0.38363,0.38368
0.64078,1.90951,0.95973,0.14523,1.72201,1.2642,1.54451,0.98785,5.70244,5.5898,1.42777,1.1243,0.54256,0.809,0.53393,0.9266,0.75338,0.3426,1.69789,2.02842,1.20498
0.42422,0.58504,0.54906,0.15011,0.43684,0.48913,0.25128,0.48718,0.31577,0.49525,0.53273,0.12649,0.55557,0.64863,0.47343,0.67988,0.59874,0.16616,0.2715,0.35853,0.65767
0.44759,0.58563,0.63805,0.14313,0.41402,0.46744,0.21967,0.43074,0.2923,0.48653,0.45456,0.09767,0.56009,0.57396,0.52954,0.66176,0.66758,0.17675,0.2803,0.37842,0.5671
0.55892,0.64009,0.71236,0.15296,0.52229,0.60822,0.33523,0.56152,0.52215,0.81954,0.65175,0.16384,0.54707,0.53987,0.57146,0.6733,0.77748,0.17261,0.30797,0.43746,0.55011
0.48051,0.61359,0.64979,0.15264,0.45711,0.51088,0.24382,0.51307,0.30039,0.5443,0.5236,0.09761,0.51423,0.58432,0.53867,0.65544,0.67615,0.16633,0.27486,0.38451,0.59758
0.47074,0.64333,0.61113,0.2177,0.42869,0.53108,0.2303,0.56372,0.31066,0.55737,0.53596,0.09949,0.48462,0.58751,0.53949,0.69003,0.60202,0.27687,0.28729,0.39684,0.64718
0.54391,0.60385,0.72803,0.14919,0.47154,0.55561,0.24156,0.48421,0.28574,0.51724,0.61529,0.08404,0.57108,0.55625,0.57226,0.67984,0.74952,0.23347,0.2933,0.4281,0.54189
0.38602,0.61546,0.54472,0.18342,0.36518,0.51954,0.23869,0.51018,0.30062,0.53484,0.4663,0.11487,0.70293,0.65962,0.62491,0.67242,0.58639,0.25919,0.25801,0.51054,0.53405
0.43515,0.59868,0.59667,0.29548,0.43696,0.56371,0.24506,0.57658,0.35055,0.547,0.54738,0.11583,0.56229,0.58885,0.56558,0.71811,0.64167,0.20158,0.27671,0.41121,0.72499
0.43538,0.69506,0.64249,0.15095,0.40163,0.54192,0.19456,0.57462,0.26869,0.59429,0.53572,0.08536,0.53399,0.64619,0.47038,0.77834,0.70043,0.26733,0.23587,0.35428,0.67306
0.40704,0.60827,0.57629,0.1543,0.43575,0.48868,0.2386,0.51706,0.31451,0.56679,0.49286,0.11632,0.42259,0.58751,0.46121,0.53406,0.52691,0.19626,0.28706,0.36901,0.507
0.45367,0.68095,0.63933,0.14393,0.43152,0.57021,0.23375,0.53677,0.2914,0.56228,0.54544,0.09079,0.60483,0.59611,0.57516,0.72212,0.74402,0.14138,0.31855,0.45547,0.5939
0.3751,0.51537,0.43785,0.18296,0.36639,0.51041,0.20819,0.5037,0.29836,0.58768,0.44548,0.06692,0.42749,0.63991,0.45864,0.57614,0.44024,0.19358,0.28929,0.37415,0.55993
0.5014,0.72216,0.71203,0.1627,0.49402,0.63512,0.27349,0.60643,0.38017,0.58478,0.58929,0.10892,0.50289,0.62728,0.45324,0.74396,0.689,0.16887,0.31984,0.35013,0.59215
0.40256,0.59127,0.52104,0.39676,0.40346,0.51579,0.23305,0.55081,0.28951,0.56071,0.50387,0.10054,0.39665,0.51769,0.38878,0.58874,0.5191,0.3717,0.26689,0.32512,0.52313
0.4404,0.64823,0.58699,0.17849,0.43348,0.51523,0.27305,0.60639,0.3175,0.60838,0.5096,0.12774,0.54622,0.70127,0.50867,0.73845,0.61549,0.20166,0.31476,0.36321,0.6693
0.42551,0.55199,0.56691,0.15892,0.40446,0.47806,0.19772,0.4879,0.26986,0.48211,0.48254,0.08603,0.52282,0.69914,0.48342,0.77789,0.59493,0.22963,0.28511,0.38329,0.71123
0.57847,0.66674,0.76078,0.16674,0.54224,0.63107,0.28125,0.54882,0.33043,0.57102,0.69221,0.1179,0.49325,0.54346,0.54565,0.59666,0.66423,0.22963,0.31579,0.38048,0.50465
0.48564,0.65474,0.72779,0.15872,0.44625,0.57112,0.23098,0.50642,0.32633,0.55985,0.60903,0.10683,0.54163,0.68526,0.52609,0.73533,0.648,0.66512,0.3337,0.42715,0.72933
0.4946,0.67315,0.72015,2.7522,0.50038,0.61649,0.31151,0.62091,0.41169,0.72875,0.65574,0.093,0.49002,0.62981,0.51251,0.67388,0.6341,0.22063,0.30792,0.3891,0.55428
0.54503,0.70256,0.70684,0.18163,0.5826,0.66314,0.28119,0.63998,0.35383,0.65271,0.7388,0.12712,0.47002,0.61019,0.54612,0.70725,0.64513,0.1491,0.2797,0.36015,0.56028
0.45954,0.6735,0.59886,0.16797,0.42639,0.55922,0.2249,0.58635,0.27219,0.53793,0.58215,0.11003,0.48238,0.62408,0.48095,0.62748,0.62058,0.17394,0.31435,0.366,0.57195
0.46795,0.52581,0.55746,0.23611,0.42646,0.48226,0.24878,0.45409,0.28166,0.50783,0.50856,0.09668,0.41627,0.57403,0.43487,0.58359,0.59473,0.2177,0.30304,0.33575,0.52194
0.48004,0.63909,0.67472,0.17079,0.47548,0.60182,0.23172,0.53886,0.31772,0.5399,0.59701,0.09281,0.52835,0.58946,0.54095,0.65413,0.65608,0.20927,0.3095,0.39671,0.52151
0.52066,0.74461,0.77718,0.17092,0.42958,0.59352,0.23235,0.57926,0.29427,0.59617,0.59033,0.10147,0.70625,0.65035,0.68801,0.84845,0.84663,0.41178,0.30937,0.43355,0.70967
0.39887,0.64591,0.54107,0.15658,0.39252,0.5011,0.24778,0.48338,0.30407,0.50007,0.45369,0.09362,0.63257,0.69117,0.56589,0.69558,0.58105,0.26989,0.30387,0.47694,0.69973
0.48963,0.65853,0.65336,0.15968,0.43202,0.59301,0.27621,0.57637,0.33651,0.55145,0.60124,0.12313,0.52372,0.57117,0.54677,0.67253,0.68987,0.28754,0.2952,0.42099,0.55848
0.45789,0.62238,0.64458,0.16957,0.41827,0.57862,0.23474,0.55866,0.3279,0.55643,0.60762,0.09729,0.50889,0.55947,0.45785,0.57588,0.56088,0.19751,0.26884,0.38334,0.50699
0.57351,0.79834,0.78821,0.18576,0.51308,0.66509,0.54563,0.71551,0.89373,0.91091,0.65871,0.26056,0.67597,0.84795,0.65718,0.93782,0.89199,0.31207,0.29605,0.43971,0.79841
0.49188,0.73218,0.76048,0.23866,0.43909,0.55511,0.34499,0.82575,0.76764,1.64945,0.54808,0.34943,0.66659,0.68767,0.64872,0.84882,0.8359,0.35821,0.32255,0.50846,0.62646
0.51821,0.86143,0.76381,0.15336,0.46019,0.70603,0.36687,0.72757,0.65265,0.98226,0.59363,0.37219,0.60486,0.66302,0.61793,0.85092,0.75495,0.20478,0.28907,0.44394,0.71743
0.46765,0.72084,0.64796,0.14319,0.43631,0.58591,0.2265,0.58334,0.28254,0.5762,0.6221,0.09901,0.49327,0.62932,0.5088,0.72729,0.65292,0.22003,0.28303,0.39171,0.64374
0.47689,0.61944,0.59728,0.15112,0.42345,0.57001,0.24755,0.53965,0.301,0.54831,0.54979,0.10582,0.46419,0.64488,0.51568,0.63742,0.60254,0.21453,0.3101,0.38502,0.53489
0.40162,0.58406,0.56109,0.21455,0.35635,0.52217,0.2,0.5049,0.23432,0.52138,0.46756,0.08114,0.46448,0.58241,0.47603,0.64064,0.56799,0.2229,0.25686,0.39333,0.56337
0.43473,0.55575,0.51528,0.1887,0.41419,0.4893,0.25092,0.50468,0.26477,0.46496,0.4714,0.08399,0.40696,0.54231,0.44431,0.58192,0.5206,0.22145,0.29326,0.36657,0.57407
0.48497,0.6055,0.59616,0.17564,0.43872,0.53369,0.24559,0.49237,0.28979,0.48685,0.51717,0.10165,0.49257,0.59079,0.50391,0.63176,0.59649,0.42356,0.28049,0.38566,0.58456
0.42269,0.57396,0.4946,0.14349,0.37047,0.46919,0.219,0.50631,0.26381,0.51749,0.46761,0.07871,0.55502,0.66926,0.51032,0.68358,0.59339,0.24456,0.31078,0.39151,0.6444
0.43344,0.56022,0.58749,0.14108,0.42459,0.55369,0.2181,0.55218,0.28704,0.60011,0.5947,0.09101,0.40981,0.58242,0.47094,0.56329,0.59104,0.33411,0.27178,0.3425,0.51864
0.42173,0.6366,0.56566,0.15151,0.44854,0.52671,0.23324,0.54088,0.3041,0.54086,0.51829,0.10424,0.41703,0.55936,0.42182,0.59958,0.51233,0.30542,0.28078,0.33417,0.49312
0.60866,0.69253,0.74194,0.16176,0.55259,0.64154,0.31676,0.67201,0.35335,0.64252,0.67595,0.12509,0.62605,0.72789,0.59553,0.71619,0.70407,0.19202,0.35141,0.51909,0.68128
0.58502,0.72461,0.72664,0.14438,0.49811,0.60198,0.28308,0.55686,0.34538,0.56268,0.59915,0.13003,0.52095,0.64503,0.61077,0.7997,0.82089,0.32996,0.33104,0.37705,0.67875
0.5653,0.73909,0.7489,0.15073,0.583,0.6312,0.28782,0.55833,0.34948,0.63225,0.77349,0.12199,0.48356,0.61741,0.49811,0.68512,0.65006,1.044,0.34194,0.38818,0.60537
0.47565,0.68719,0.69814,0.15676,0.44909,0.53899,0.24929,0.52486,0.33002,0.56149,0.57688,0.10895,0.53022,0.60216,0.50373,0.64935,0.63713,0.95177,0.2852,0.4198,0.5605
0.40245,0.56449,0.54861,0.11452,0.3856,0.49861,0.20582,0.47009,0.27008,0.5251,0.51328,0.07941,0.525,0.54647,0.47546,0.67473,0.63011,0.77297,0.27089,0.36316,0.51686
0.38258,0.60614,0.51338,0.15907,0.37874,0.52843,0.20284,0.59842,0.28316,0.54813,0.49786,0.10752,0.45804,0.56577,0.48401,0.53145,0.50693,0.4737,0.2842,0.41094,0.55038
0.47854,0.53792,0.58194,0.15303,0.44394,0.51113,0.23395,0.44074,0.29624,0.45494,0.54361,0.09152,0.48154,0.57101,0.51093,0.55782,0.54736,0.32843,0.30747,0.41268,0.52381
0.37877,0.62066,0.56967,0.13514,0.36804,0.4577,0.20501,0.49225,0.26646,0.52106,0.43676,0.07114,0.53053,0.60434,0.48592,0.80615,0.66681,0.21146,0.26277,0.35877,0.65171
0.60806,0.86117,0.92232,0.15905,0.55668,0.76712,0.302,0.63481,0.34972,0.62801,0.77126,0.13932,0.5834,0.54675,0.57607,0.73968,0.77521,0.24692,0.31774,0.40082,0.54743
0.48869,0.60455,0.59999,0.15174,0.39583,0.46183,0.24182,0.46491,0.27162,0.50181,0.51516,0.10517,0.61417,0.68882,0.57878,0.77553,0.79206,0.25826,0.29669,0.42594,0.58154
0.6907,0.80347,1.02498,0.15903,0.7662,0.85157,0.35727,0.68159,0.52284,0.75821,1.02689,0.18528,0.62073,0.69316,0.76568,0.8512,0.99514,0.19234,0.33687,0.49236,0.6185
0.73442,0.79969,1.0122,0.14617,0.66712,0.71356,0.32738,0.57391,0.44235,0.58923,0.81515,0.17771,0.88586,0.72758,0.82523,0.82713,1.01747,0.16606,0.36175,0.48182,0.67771
0.50907,0.76359,0.69897,0.15329,0.49568,0.61714,0.2647,0.57413,0.32831,0.58121,0.61487,0.13253,0.57177,0.60378,0.55583,0.69306,0.67115,0.22921,0.33256,0.42971,0.58521
0.55568,0.68587,0.69615,0.19497,0.4765,0.62851,0.25813,0.62847,0.32463,0.67604,0.62534,0.10165,0.58875,0.72032,0.57546,0.6613,0.72264,0.23879,0.31536,0.43387,0.64558
0.58216,0.98064,0.79488,0.15499,0.79029,3.35189,0.32789,4.81297,1.15337,11.57308,1.4948,0.106,0.50416,0.62789,0.54312,0.69553,0.66129,0.22426,0.33944,0.40938,0.61694
0.45366,0.69098,0.67161,0.16759,0.41744,0.61887,0.24369,0.66071,0.31171,0.59645,0.55987,0.10618,0.56671,0.73029,0.46737,0.70534,0.67254,0.23022,0.26887,0.39172,0.69943
0.45663,0.63879,0.61293,0.17701,0.41623,0.55728,0.25809,0.63119,0.33532,0.57993,0.51395,0.12868,0.50921,0.66277,0.46943,0.74087,0.64643,0.25244,0.26217,0.37463,0.63094
0.50929,0.69957,0.7537,0.1771,0.43786,0.59124,0.21922,0.56862,0.31605,0.56832,0.57485,0.09197,0.61508,0.66141,0.56896,0.74194,0.81462,0.20875,0.3095,0.52714,0.57285
0.46057,0.64062,0.61753,0.15171,0.38599,0.48619,0.21984,0.51922,0.28863,0.55138,0.50548,0.10821,0.59005,0.68209,0.50771,0.79067,0.73981,0.21068,0.29933,0.37841,0.61893
0.46373,0.76443,0.69322,0.15455,0.44048,0.62411,0.27762,0.65055,0.37746,0.68264,0.60415,0.12666,0.69682,0.74217,0.65689,0.80533,0.82348,0.18817,0.29064,0.48052,0.64732
0.5428,0.98681,0.85204,0.16472,0.56377,0.73112,0.30851,0.6226,0.46359,0.64393,0.73665,0.15818,0.69167,0.80954,0.64277,1.07669,0.95655,0.25613,0.30193,0.42338,0.8333
0.88104,1.00115,1.09284,0.28288,0.68493,0.81924,0.30431,0.74749,0.34178,0.68514,0.86519,0.14605,0.86797,0.78465,0.94042,1.1021,1.13411,0.23073,0.41948,0.62008,0.77753
0.49785,0.82522,0.79364,1.89032,0.44505,0.59656,0.23831,0.66402,0.28502,0.57511,0.61767,0.11972,0.56935,0.64341,0.52885,0.77481,0.75886,0.26147,0.27654,0.37553,0.62343
0.48183,0.7164,0.69483,0.20686,0.4688,0.62329,0.27814,0.67159,0.32792,0.67446,0.59168,0.1143,0.71082,0.79942,0.52062,0.7396,0.71513,0.25434,0.27921,0.42237,0.66243
0.68301,0.83148,0.97159,0.15812,0.6397,0.75292,0.33425,0.62426,0.41257,0.66421,0.7902,0.1611,0.54153,0.6732,0.65824,0.93885,0.87765,0.2747,0.37002,0.41768,0.78563
0.46948,0.66838,0.72295,0.15244,0.46266,0.6103,0.24007,0.59993,0.31186,0.61233,0.61875,0.11133,0.63733,0.66803,0.58007,0.75021,0.7949,0.34417,0.26615,0.41093,0.65946
0.47312,0.57588,0.66837,0.1552,0.4518,0.56787,0.23699,0.54818,0.30381,0.55665,0.53299,0.10147,0.56736,0.63552,0.46873,0.71152,0.6805,0.22472,0.28501,0.36758,0.56703
0.43133,0.63097,0.58058,0.19712,0.46078,0.5739,0.26841,0.58982,0.53585,0.60661,0.54321,0.15512,0.56949,0.71359,0.45385,0.66494,0.61953,0.1577,0.28198,0.35638,0.65029
0.51006,0.69697,0.79145,0.19876,0.4324,0.63397,0.24486,0.62742,0.2832,0.58064,0.59803,0.11364,0.52346,0.64735,0.52649,0.71114,0.76381,0.50205,0.26561,0.38378,0.58297
0.42793,0.54497,0.54401,0.15492,0.32965,0.52345,0.23161,0.56605,0.26776,0.5226,0.45795,0.09553,0.55573,0.59396,0.52888,0.57119,0.63417,0.22789,0.2464,0.37876,0.56307
0.4956,0.61868,0.64866,0.14905,0.44228,0.4918,0.22477,0.55462,0.27168,0.49172,0.58361,0.12073,0.47345,0.56061,0.49293,0.55332,0.60686,0.14232,0.25325,0.39687,0.51717
0.54075,0.77386,0.87211,0.17637,0.55315,0.72287,0.30052,0.69384,0.34192,0.69717,0.73003,0.12774,0.5143,0.59463,0.60743,0.7285,0.71779,0.17831,0.32548,0.4688,0.65398
0.4649,0.59845,0.58991,0.16366,0.41087,0.47432,0.22645,0.46196,0.25979,0.47714,0.49105,0.08601,0.44446,0.56306,0.51066,0.65586,0.63296,0.24011,0.28898,0.3864,0.58136
0.51468,0.66187,0.76418,0.1628,0.46592,0.52956,0.2445,0.54053,0.29402,0.50734,0.55873,0.11501,0.51985,0.6493,0.5085,0.71868,0.77329,0.26096,0.28877,0.38124,0.59264
0.41061,0.5287,0.5236,0.16954,0.39009,0.48562,0.22796,0.49471,0.29665,0.4689,0.48537,0.1169,0.52529,0.55453,0.45658,0.54824,0.5543,0.18737,0.26967,0.35856,0.46215
0.36522,0.60953,0.48632,1.04467,0.35076,0.49204,0.22564,0.49788,0.30585,0.53322,0.43671,0.09595,0.47421,0.62337,0.42263,0.56839,0.47468,0.22433,0.31768,0.52677,0.53024
1.02233,1.42119,1.3271,0.47413,0.83543,1.3694,0.53638,1.39373,0.69118,1.39233,1.16226,0.20112,1.83628,2.39923,1.45008,1.74978,1.52302,0.15575,0.7132,1.95195,2.499
0.76602,0.91998,1.20398,1.00977,0.70023,0.88193,0.38919,0.84385,0.48389,0.8618,0.93256,0.19912,0.72681,0.83724,0.76824,0.99131,1.09335,0.18028,0.38292,0.5735,0.77043
0.77437,0.77789,1.05116,0.18379,0.61477,0.69215,0.27543,0.55805,0.28786,0.53805,0.72501,0.08553,0.7715,0.71322,0.7698,0.88016,0.96339,0.38074,0.37458,0.54897,0.67514
0.50591,0.70339,0.68381,0.16708,0.41114,0.58528,0.22558,0.63851,0.27252,0.55929,0.56312,0.08439,0.66805,0.71243,0.61934,0.76762,0.77661,0.30479,0.2837,0.41732,0.66507
0.43868,0.62239,0.59932,0.15542,0.39821,0.54495,0.22896,0.5108,0.30063,0.52107,0.53878,0.09679,0.484,0.58477,0.50437,0.63607,0.52577,0.28927,0.26329,0.35857,0.5514
0.4375,0.61288,0.59476,0.16177,0.41277,0.46726,0.24037,0.52002,0.26358,0.52897,0.4797,0.09189,0.46979,0.55468,0.48626,0.61919,0.60312,0.36385,0.27676,0.35937,0.54813
0.53798,0.70573,0.79901,0.15315,0.51877,0.63634,0.25399,0.53744,0.31276,0.58781,0.69559,0.11104,0.5742,0.62419,0.57927,0.73801,0.74139,0.21776,0.31913,0.41545,0.62515
0.46921,0.68046,0.63605,0.15422,0.41734,0.55062,0.22321,0.66912,0.32018,0.64871,0.57732,0.10326,0.71364,0.75497,0.62326,0.73453,0.71973,0.19845,0.32156,0.46933,0.64562
0.49685,0.62199,0.60157,0.15073,0.4221,0.53371,0.22934,0.53025,0.27916,0.53398,0.50679,0.09522,0.52532,0.58837,0.57891,0.63923,0.6098,0.27297,0.35698,0.43422,0.57982
0.44597,0.63168,0.54557,0.14465,0.4175,0.54444,0.26457,0.5934,0.33117,0.6338,0.52232,0.13667,0.60458,0.74351,0.52629,0.8133,0.66436,0.23079,0.29087,0.42856,0.65531
0.46169,0.59801,0.66077,0.17194,0.47941,0.57265,0.23907,0.58294,0.30553,0.56221,0.65024,0.09947,0.49192,0.57647,0.49245,0.62331,0.61624,0.27344,0.28203,0.38509,0.61249
0.45106,0.63316,0.56594,0.14383,0.45326,0.52247,0.25504,0.54751,0.30151,0.53577,0.55107,0.11303,0.51305,0.64732,0.46694,0.68809,0.64777,0.31046,0.30024,0.43501,0.56754
0.39699,0.55372,0.59239,0.1353,0.39462,0.46469,0.21202,0.46035,0.26606,0.44419,0.44582,0.08001,0.44946,0.59152,0.42369,0.60836,0.54632,0.21623,0.26875,0.348,0.48599
0.38624,0.52938,0.50295,0.14626,0.37952,0.51663,0.20159,0.5066,0.28923,0.53345,0.49614,0.08934,0.39299,0.586,0.37147,0.58656,0.4938,0.19814,0.23334,0.36121,0.56101
0.67958,0.76724,0.86559,0.15402,0.54059,0.59579,0.26981,0.56226,0.3175,0.55503,0.60347,0.08916,0.71452,0.69234,0.63026,0.81921,0.80012,0.25892,0.36112,0.46393,0.63572
0.59146,0.80499,0.92876,0.13888,0.60281,0.76903,0.29178,0.67211,0.36376,0.64825,0.84393,0.15129,0.6054,0.69651,0.53699,0.91785,0.84432,0.21617,0.30049,0.36968,0.62032
0.47213,0.69507,0.72826,0.15174,0.48315,0.59787,0.2735,0.56221,0.42077,0.70783,0.61282,0.13791,0.7697,0.72693,0.66435,0.79617,0.79989,0.25009,0.28621,0.43404,0.63922
0.57305,0.76796,0.88386,0.14659,0.55667,0.73711,0.56993,0.88024,1.60473,1.82564,0.6803,0.45953,0.70736,0.66757,0.65446,0.89755,0.91746,0.27813,0.3531,0.46714,0.68439
0.5838,0.81431,0.82811,0.15394,0.58331,0.74826,0.32395,0.63553,0.55944,0.87452,0.73232,0.21693,0.72541,0.7174,0.74421,0.90212,0.88062,0.34011,0.33981,0.44492,0.68755
0.59678,0.84593,0.80351,0.13417,0.46217,0.65718,0.222,0.53177,0.2716,0.51749,0.5834,0.07843,0.66468,0.63431,0.72954,0.82079,0.86094,0.22584,0.33523,0.49062,0.68195
0.4599,0.53962,0.59594,0.13155,0.38924,0.47572,0.25407,0.48768,0.29297,0.48292,0.48278,0.09021,0.57333,0.62796,0.56473,0.62381,0.64951,0.24515,0.28823,0.38631,0.5803
0.42787,0.63902,0.62263,0.15746,0.42881,0.57628,0.2488,0.519,0.31254,0.57006,0.51501,0.11418,0.55163,0.57537,0.53724,0.6112,0.58531,0.21019,0.28578,0.48794,0.56307
0.52943,0.72599,0.73446,0.15847,0.4249,0.56544,0.2023,0.50437,0.25821,0.52313,0.51792,0.08684,0.71653,0.62706,0.61636,0.95947,0.90345,0.27695,0.28982,0.41076,0.55487
0.41139,0.75298,0.62641,0.14642,0.38093,0.61825,0.19956,0.65274,0.24976,0.53614,0.514,0.11056,0.44601,0.63453,0.4614,0.68678,0.56508,0.29859,0.27014,0.37744,0.67372
0.47559,0.59678,0.62005,0.15558,0.4275,0.52136,0.25934,0.53268,0.28326,0.53458,0.56579,0.1126,0.50517,0.62819,0.54594,0.65046,0.61009,0.24994,0.32928,0.4005,0.56468
0.52862,0.74933,0.86125,0.14589,0.46587,0.62592,0.24377,0.54268,0.28659,0.47962,0.60433,0.10395,0.54577,0.5792,0.52196,0.74859,0.78576,0.36008,0.3075,0.355,0.58397
0.5282,0.67148,0.78715,0.14751,0.49218,0.62064,0.24261,0.5392,0.29015,0.50703,0.63583,0.10442,0.59812,0.60193,0.52866,0.77164,0.75644,0.44264,0.29763,0.37872,0.5379
0.48494,0.72795,0.72851,0.14402,0.44436,0.62953,0.3861,0.65072,0.59244,0.63306,0.61794,0.18466,0.55429,0.6701,0.60521,0.75328,0.72187,0.39377,0.28097,0.41994,0.60336
0.4853,0.64347,0.67232,0.15733,0.45358,0.58184,0.23298,0.50631,0.27659,0.43471,0.56843,0.08169,0.57425,0.63383,0.55296,0.75094,0.70653,0.22169,0.31129,0.40539,0.68598
0.48591,0.62903,0.59374,0.1358,0.41467,0.53049,0.23725,0.54366,0.29273,0.49116,0.53218,0.09252,0.61102,0.60024,0.5029,0.69371,0.57863,0.25059,0.29106,0.40857,0.55749
0.53966,0.70996,0.77303,0.14378,0.47964,0.61272,0.25335,0.5776,0.33081,0.57412,0.5903,0.1276,0.68752,0.71748,0.69719,0.79219,0.82383,0.19988,0.31737,0.43955,0.68367
0.41592,0.64385,0.58307,0.14136,0.35935,0.53366,0.20532,0.514,0.25416,0.51186,0.46492,0.08876,0.64406,0.6881,0.58724,0.84014,0.68413,0.22355,0.27052,0.46517,0.6369
0.45089,0.63067,0.5961,0.13897,0.40695,0.47094,0.20425,0.50016,0.25733,0.48463,0.51126,0.08451,0.46774,0.61117,0.45482,0.73512,0.56231,0.32819,0.25619,0.32481,0.62617
0.40563,0.68104,0.64691,0.16051,0.40165,0.60363,0.22307,0.60033,0.28031,0.56132,0.5385,0.08804,0.49525,0.63141,0.47145,0.78661,0.63957,0.20593,0.25542,0.37636,0.65548
0.45661,0.59717,0.60072,0.18154,0.41416,0.54346,0.23108,0.49537,0.26291,0.50567,0.53759,0.07855,0.48552,0.5701,0.501,0.63269,0.60975,0.23239,0.2655,0.38695,0.54759
0.42804,0.60193,0.63264,0.15526,0.37888,0.48227,0.20045,0.47876,0.22544,0.53901,0.52791,0.06172,0.54317,0.56033,0.48799,0.63823,0.63582,0.23963,0.27696,0.39822,0.52679
0.46904,0.55371,0.59879,0.1447,0.4206,0.46649,0.23254,0.52381,0.27724,0.515,0.51369,0.09846,0.62319,0.64719,0.57638,0.75277,0.66411,0.26713,0.28767,0.40654,0.64167
0.46709,0.99958,0.81318,0.19659,0.55801,0.80439,0.59631,0.9604,1.054,1.16509,0.67116,0.34174,0.61596,1.06447,0.65081,0.97922,0.81032,0.21384,0.28351,0.51122,1.0418
0.6779,0.97312,0.96878,0.16486,0.6092,0.92651,0.55743,1.24443,0.87233,1.4779,0.84545,1.11244,0.68646,0.82292,0.65453,1.02291,0.94715,0.18561,0.37704,0.51662,0.88571
0.51871,0.81016,0.72961,0.50374,0.48904,0.74454,0.36982,0.77739,0.85368,0.91562,0.67421,0.23284,0.61296,0.78149,0.58634,0.81309,0.73708,0.22347,0.30747,0.41359,0.78571
0.61205,0.92641,0.90113,0.45958,0.57631,0.76921,0.85484,1.06736,1.42436,1.36462,0.71309,2.35178,0.8511,0.9928,0.6656,1.06276,0.93226,0.27942,0.3722,0.47333,1.01786
0.62254,0.878,0.87598,0.20226,0.5606,0.91691,0.44267,1.31982,0.74075,2.16171,0.75049,0.96719,0.67897,0.84641,0.66452,0.9076,0.82166,0.23582,0.36965,0.47473,0.8556
0.55389,0.8523,0.81321,0.21102,0.43354,0.72037,0.42559,0.86771,0.63713,0.94313,0.60096,0.42195,0.67371,0.7895,0.62257,0.92662,0.88448,0.24823,0.29758,0.40835,0.773
0.681,1.17172,1.14315,0.50613,0.60481,1.23537,0.7896,1.54851,1.81837,3.86239,0.93162,1.16504,0.80563,0.90576,0.73776,1.04765,1.07196,0.25101,0.32648,0.50668,0.92106
0.58906,0.86924,0.84038,0.18638,0.58974,0.94825,0.71064,0.9609,1.43326,1.50756,0.7508,0.25612,0.68913,0.76773,0.6697,0.86544,0.85375,0.21756,0.31419,0.47935,0.7711
0.6467,0.91043,0.94678,0.16956,0.62666,0.84578,0.73738,0.91358,1.78319,1.77455,0.74785,0.76782,0.73293,0.86724,0.63715,0.97862,0.94022,0.18642,0.32503,0.46762,0.95403
0.55415,0.59781,0.71501,0.1234,0.50347,0.62319,0.41283,0.91719,1.05198,2.23595,0.59527,0.2423,0.60223,0.7122,0.5814,0.75322,0.70482,0.19337,0.3139,0.41777,0.65712
0.50434,0.76185,0.69298,0.14903,0.43327,0.68071,0.40042,0.69794,0.78627,1.08927,0.58651,0.24739,0.70262,0.646,0.67194,0.78995,0.782,0.2852,0.27595,0.45693,0.63339
0.4827,0.80496,0.75891,0.16328,0.50083,0.70721,0.50297,0.69804,0.89999,1.10603,0.71904,0.20138,0.59682,0.69988,0.54873,0.86934,0.71891,0.26282,0.27163,0.4279,0.71608
0.53145,0.76188,0.78631,0.18403,0.47918,0.6358,0.38141,0.66736,0.61564,0.79669,0.59564,0.16795,0.70591,0.84064,0.59385,0.90142,0.89543,0.28995,0.27926,0.39947,0.78007
0.52885,0.61217,0.6521,0.15526,0.46303,0.51286,0.25653,0.56255,0.37819,0.60224,0.55499,0.11798,0.59169,0.62697,0.6472,0.69002,0.72755,0.2335,0.28781,0.42947,0.56367
0.43092,0.55846,0.57002,0.13874,0.42424,0.53628,0.23574,0.45713,0.29839,0.53243,0.53247,0.09818,0.49315,0.60128,0.51046,0.63191,0.58603,0.39606,0.25429,0.38119,0.54018
0.47424,0.65795,0.71381,0.13666,0.43391,0.55406,0.2523,0.53622,0.30631,0.50956,0.5543,0.09146,0.46546,0.53571,0.52166,0.70762,0.70099,0.27089,0.28688,0.36715,0.53689
0.4244,0.53734,0.5038,0.15072,0.39591,0.48468,0.23188,0.56198,0.33476,0.51908,0.51171,0.11024,0.43493,0.62652,0.41332,0.62703,0.54326,0.31149,0.25413,0.38763,0.56142
0.49477,0.66603,0.65448,0.13914,0.43097,0.58333,0.23891,0.56926,0.318,0.55945,0.58346,0.08361,0.49269,0.58667,0.51573,0.63402,0.66116,0.21496,0.30354,0.38699,0.59315
0.33517,0.46075,0.44007,0.1389,0.32959,0.4188,0.22676,0.4223,0.29043,0.47225,0.39243,0.07479,0.40645,0.50421,0.41251,0.47227,0.47612,0.27063,0.25846,0.35734,0.43307
0.43374,0.54496,0.56402,0.15836,0.42559,0.54355,0.23626,0.49698,0.29399,0.51584,0.54756,0.09587,0.38308,0.52268,0.38944,0.5261,0.54931,0.18768,0.29363,0.35015,0.44921
0.37846,0.57882,0.49977,0.16261,0.37273,0.47534,0.21138,0.51626,0.2668,0.4712,0.46138,0.07443,0.43088,0.59549,0.4117,0.63327,0.52441,0.2563,0.27557,0.37141,0.574
0.52453,0.81019,0.77426,0.15069,0.43229,0.7072,0.50526,0.72722,1.06826,1.17842,0.62735,0.20886,0.68471,0.76851,0.62537,0.88046,0.83714,0.2404,0.29183,0.47625,0.70382
0.54202,0.69133,0.75151,0.20637,0.46043,0.62363,0.37366,0.63373,0.69216,0.90943,0.62134,0.16978,0.67597,0.7357,0.62122,0.76061,0.79917,0.30053,0.29893,0.43984,0.65206
0.50266,0.69069,0.69856,0.3748,0.48512,0.66106,0.46694,0.86093,0.98061,1.46123,0.59676,0.46644,0.55818,0.69999,0.51899,0.83652,0.75289,0.28217,0.29201,0.40496,0.6626
0.43477,0.77652,0.71035,0.15479,0.39017,0.64373,0.49447,0.80115,0.92463,1.25778,0.5598,0.33501,0.63865,0.71262,0.53363,0.72074,0.65782,0.23561,0.26625,0.46644,0.62709
0.52269,0.87859,0.83961,0.16854,0.49627,0.80635,0.43622,0.8686,0.70311,1.00003,0.69273,0.41188,0.67777,0.79868,0.59485,0.88942,0.75503,0.31226,0.28909,0.41533,0.79142
0.79635,1.2766,1.15094,0.23529,0.96738,1.5605,1.01909,1.67836,3.32307,5.18096,1.31012,1.9202,1.01992,1.07924,0.80405,1.32767,1.19015,0.21313,0.44305,0.55065,1.2018
0.59445,1.06626,1.01455,0.20657,0.63134,1.04416,0.7456,1.22326,2.36354,3.3474,0.94566,0.84205,0.75246,0.90154,0.71489,1.14515,1.06693,0.23585,0.31559,0.51379,0.93963
0.51085,0.5788,0.65874,0.14292,0.51608,0.61641,0.51788,0.9503,1.54325,2.36007,0.59859,0.7926,0.50791,0.54137,0.56499,0.67655,0.73093,0.27636,0.30689,0.43073,0.55695
0.45791,0.79789,0.80004,0.15262,0.437,0.70853,0.70156,0.71455,1.27233,1.39936,0.63832,0.75797,0.83548,0.8041,0.65286,1.06908,0.97047,0.33269,0.28902,0.46863,0.95128
0.41787,0.69765,0.60736,0.142,0.45505,0.60367,0.37127,0.67933,0.60475,1.07824,0.57627,0.21244,0.48437,0.61409,0.40284,0.71252,0.64274,0.35813,0.25658,0.33761,0.57989
0.56554,0.82085,0.76488,0.15539,0.48894,0.71678,0.58262,0.75732,1.24733,1.56369,0.61634,0.34764,0.76042,0.83358,0.74391,1.02522,0.93749,0.24191,0.30392,0.5166,0.82385
0.48882,0.69629,0.63936,0.17349,0.39406,0.60476,0.50442,0.61824,0.90869,1.11102,0.51991,0.18169,0.59465,0.71022,0.52481,0.79071,0.70878,0.21078,0.26677,0.42572,0.69872
0.56793,0.78601,0.79016,0.16391,0.4955,0.61509,0.36727,0.58726,0.5842,0.72416,0.60978,0.15129,0.69499,0.71822,0.6597,0.93524,0.92185,0.30824,0.33577,0.43937,0.79422
0.51765,0.57864,0.67051,0.15403,0.46358,0.60534,0.27664,0.66857,0.36604,0.66712,0.6192,0.15262,0.58368,0.58357,0.60256,0.63716,0.63741,0.22853,0.28569,0.40912,0.55429
0.42697,0.58752,0.58172,0.13292,0.39217,0.50493,0.24029,0.56422,0.34941,0.60089,0.48312,0.09153,0.44274,0.58936,0.45057,0.61888,0.54035,0.36992,0.28681,0.35967,0.59251
0.42519,0.63519,0.59703,0.15754,0.37204,0.51526,0.23223,0.50593,0.36182,0.53428,0.46598,0.0925,0.47811,0.64178,0.45172,0.69705,0.61963,0.20848,0.25886,0.33324,0.60557
0.43747,0.59687,0.51417,0.16007,0.41713,0.5414,0.25247,0.61991,0.37034,0.64743,0.50894,0.11657,0.46271,0.63178,0.44682,0.65132,0.54518,0.22259,0.25478,0.38311,0.59952
0.435,0.64587,0.59737,0.15123,0.44402,0.53326,0.23989,0.5375,0.31904,0.5672,0.55804,0.11228,0.63903,0.67239,0.54224,0.77201,0.71233,0.20014,0.2894,0.39198,0.69301
0.46911,0.698,0.66824,0.14752,0.44466,0.52561,0.28145,0.49693,0.39236,0.55923,0.5781,0.11465,0.65586,0.64194,0.61516,0.77524,0.7619,0.27621,0.31947,0.4295,0.62667
0.37486,0.54121,0.42515,0.13925,0.34837,0.44941,0.21836,0.49343,0.26692,0.51357,0.40798,0.08452,0.41976,0.55204,0.41815,0.63062,0.44627,0.32568,0.27025,0.36691,0.57579
0.503,0.67815,0.65896,0.13062,0.43457,0.54234,0.25248,0.52053,0.42226,0.57606,0.50709,0.13913,0.46732,0.60491,0.4916,0.6632,0.70632,0.33698,0.28785,0.37546,0.5439
0.57223,0.7348,0.74922,0.15508,0.45134,0.65461,0.2944,0.64541,0.35452,0.64542,0.61328,0.13383,0.67205,0.70126,0.62994,0.78936,0.80245,0.29937,0.32898,0.378,0.61122
0.39704,0.65159,0.5809,0.15444,0.44709,0.61571,0.29245,0.63612,0.45725,0.67937,0.54149,0.12343,0.5435,0.58957,0.48074,0.65639,0.53916,0.275,0.27914,0.42431,0.72176
0.39388,0.57664,0.52615,0.14407,0.40642,0.48054,0.28631,0.49591,0.42982,0.56818,0.46121,0.10231,0.53706,0.67152,0.46549,0.82339,0.59728,0.3071,0.24568,0.39643,0.69198
0.47514,0.70201,0.65095,0.15555,0.42359,0.6018,0.25687,0.62784,0.38666,0.61894,0.53158,0.13534,0.52134,0.71627,0.52312,0.76546,0.6764,0.30882,0.29146,0.39378,0.68998
0.48163,0.74264,0.76914,0.16651,0.44764,0.61604,0.34894,0.63793,0.52849,0.75004,0.63246,0.12226,0.65178,0.68859,0.53747,0.83097,0.76304,0.20654,0.2878,0.40417,0.71555
0.44053,0.58266,0.6141,0.14415,0.42878,0.47931,0.3306,0.55798,0.57138,0.70727,0.52014,0.12284,0.60811,0.65295,0.52763,0.65197,0.65561,0.18136,0.27466,0.40772,0.5328
0.47844,0.77846,0.728,0.14954,0.4059,0.61262,0.58621,0.6416,1.09215,1.08294,0.53344,0.47838,0.72828,0.68208,0.61722,0.7894,0.77812,0.20565,0.28442,0.44371,0.74739
0.49033,0.68599,0.68552,0.15267,0.48454,0.64874,0.36581,0.73975,0.81426,1.39577,0.6418,0.40767,0.59959,0.62356,0.53736,0.65754,0.70009,0.25224,0.30479,0.42409,0.54525
0.49627,0.77292,0.72124,0.14481,0.45233,0.63179,0.59339,0.69728,1.1937,1.28995,0.60098,0.2856,0.64613,0.78518,0.55185,0.96876,0.88201,0.20114,0.2669,0.40157,0.81011
0.46025,0.79534,0.76215,0.13644,0.44608,0.62311,0.52473,0.63316,1.05555,1.18346,0.59887,0.22403,0.61355,0.72624,0.59227,0.88152,0.84346,0.17459,0.28044,0.41653,0.68949
0.47217,0.64216,0.63342,0.15456,0.41308,0.56739,0.30977,0.55034,0.57665,0.84919,0.54318,0.12807,0.58913,0.64023,0.5501,0.68594,0.69928,0.24198,0.2607,0.42152,0.6125
0.48831,0.69702,0.70147,0.15085,0.44073,0.60923,0.35533,0.65385,0.62812,1.00756,0.59309,0.15957,0.69465,0.65344,0.56436,0.73132,0.68793,0.25723,0.27912,0.4603,0.65381
0.47713,0.6939,0.63272,0.17069,0.44127,0.53008,0.46911,0.63157,0.87584,1.11263,0.48907,0.22738,0.58616,0.67257,0.49679,0.73737,0.68787,0.16333,0.27648,0.38441,0.6893
0.41798,0.6913,0.60168,0.16537,0.37487,0.60977,0.39213,0.68866,0.75265,0.92395,0.49051,0.12804,0.56357,0.73979,0.49349,0.72853,0.68212,0.1913,0.27484,0.40294,0.73057
0.46845,0.71893,0.66983,0.14944,0.44974,0.58584,0.30731,0.61648,0.46754,0.79561,0.53674,0.11228,0.49007,0.6334,0.51354,0.74586,0.64768,0.21567,0.30181,0.36825,0.63096
0.4059,0.57693,0.51586,0.15713,0.39396,0.44507,0.24816,0.53605,0.40197,0.71345,0.4914,0.0801,0.466,0.60311,0.47001,0.6298,0.5058,0.22575,0.26563,0.35875,0.55557
0.44671,0.64677,0.70685,0.14257,0.47905,0.56931,0.28572,0.58982,0.45481,0.71473,0.59078,0.12147,0.5315,0.72422,0.50518,0.79592,0.70819,0.18306,0.29493,0.39369,0.63976
0.36382,0.57527,0.4823,0.14454,0.35773,0.48459,0.24062,0.56631,0.34919,0.67136,0.42633,0.07176,0.44711,0.64432,0.43487,0.63777,0.52603,0.19057,0.25554,0.32725,0.56674
0.46989,0.70144,0.65563,0.15081,0.43037,0.58677,0.24592,0.64564,0.35904,0.6719,0.60363,0.10786,0.50913,0.63944,0.50595,0.6366,0.61222,0.19553,0.28718,0.3982,0.61661
0.66217,0.93758,0.95568,0.16844,0.58324,0.70661,0.28778,0.66958,0.43754,0.74151,0.73872,0.1125,0.60424,0.69193,0.59851,0.91911,0.94975,0.25765,0.34415,0.42226,0.68353
0.49844,0.64851,0.66534,0.1489,0.43829,0.58784,0.28646,0.64465,0.45167,0.72555,0.57232,0.13342,0.52702,0.68412,0.53785,0.72092,0.6883,0.17107,0.29614,0.42653,0.65155
0.39197,0.60369,0.52468,0.13476,0.41314,0.52177,0.26413,0.51306,0.38692,0.55782,0.53502,0.13497,0.51486,0.60237,0.49369,0.61002,0.57254,0.21592,0.23804,0.35154,0.57051
0.44733,0.6395,0.61167,0.15825,0.39258,0.53422,0.25411,0.59026,0.36435,0.63519,0.50938,0.09444,0.54603,0.62909,0.56534,0.73559,0.65645,0.1428,0.31851,0.45262,0.65246
0.45234,0.64848,0.6075,0.30759,0.41661,0.59741,0.28665,0.7607,0.55897,0.94804,0.58172,0.10149,0.59628,0.82695,0.49661,0.64788,0.57533,0.22253,0.28566,0.43477,0.75489
0.35956,0.55787,0.48544,0.13337,0.37189,0.46783,0.21595,0.5127,0.34226,0.59341,0.45784,0.06766,0.43943,0.5624,0.45339,0.55783,0.54523,0.27088,0.23194,0.36261,0.50624
0.38322,0.57357,0.54798,0.14872,0.37762,0.46959,0.19587,0.57391,0.322,0.51657,0.43203,0.10085,0.46474,0.58354,0.43854,0.60849,0.58771,0.17869,0.24741,0.38856,0.59329
0.43872,0.59321,0.54447,0.16545,0.38376,0.51412,0.2428,0.55249,0.37399,0.61472,0.50151,0.07901,0.51706,0.70114,0.49209,0.68258,0.55779,0.28109,0.29261,0.41652,0.68561
0.54672,0.7021,0.71007,0.17538,0.49999,0.64731,0.30006,0.59725,0.45649,0.63694,0.68778,0.12074,0.51861,0.61092,0.55225,0.66629,0.62962,0.24317,0.30846,0.43267,0.55818
0.4837,0.69653,0.69889,0.13151,0.38826,0.49589,0.23729,0.52736,0.31908,0.64642,0.49855,0.11229,0.66904,0.69313,0.59229,0.73603,0.78016,0.21917,0.25841,0.44747,0.65078
0.58135,0.72273,0.71785,0.15098,0.5006,0.55833,0.2855,0.53482,0.34074,0.59507,0.6032,0.13485,0.61437,0.63958,0.65508,0.76505,0.75691,0.14482,0.34574,0.45769,0.61194
0.41362,0.64065,0.57947,0.15436,0.37338,0.53646,0.22747,0.56071,0.26971,0.55364,0.50024,0.07522,0.40534,0.58392,0.42425,0.62907,0.56472,0.13536,0.28696,0.3266,0.64039
0.4493,0.63391,0.61777,0.15878,0.4346,0.51351,0.21351,0.50986,0.28734,0.52866,0.53037,0.09452,0.51433,0.56104,0.51833,0.60582,0.59468,0.18468,0.28915,0.38681,0.60815
0.47494,0.60202,0.68773,0.14336,0.43436,0.6029,0.23423,0.56254,0.27874,0.5266,0.62543,0.09589,0.4479,0.60233,0.46146,0.61286,0.56038,0.17044,0.28889,0.38456,0.52047
0.40622,0.72291,0.56734,0.19266,0.35421,0.55446,0.19647,0.6361,0.2583,0.63312,0.47894,0.09898,0.46414,0.71913,0.45483,0.70553,0.56277,0.18941,0.289,0.43368,0.7158
0.39214,0.55747,0.53923,0.14792,0.37597,0.48218,0.23023,0.53011,0.25439,0.49852,0.43449,0.09168,0.44507,0.56965,0.38405,0.57183,0.53352,0.16424,0.27388,0.34391,0.56421
0.41997,0.54183,0.56254,0.15693,0.35015,0.50092,0.2176,0.46225,0.27495,0.47515,0.5038,0.08655,0.4563,0.59547,0.42163,0.58078,0.56743,0.19358,0.286,0.3888,0.55932
0.41172,0.61907,0.52377,0.15913,0.41748,0.51227,0.41068,0.51883,0.40847,0.56425,0.50591,0.10091,0.54429,0.65087,0.45264,0.69264,0.64451,0.21764,0.48989,0.40017,0.5756
0.54198,0.72662,0.72895,11.9618,0.5032,0.62143,0.27533,0.57367,0.32355,0.62518,0.65546,0.09846,0.51028,0.64012,0.51764,0.66817,0.69974,0.16695,0.31055,0.41732,0.55523
0.51352,0.69478,0.69226,1.98241,0.49276,0.57895,0.27429,0.53675,0.3194,0.58374,0.62958,0.11646,0.55856,0.61139,0.5346,0.71218,0.71383,0.14828,0.31471,0.43447,0.61694
0.42731,0.68927,0.58215,0.27299,0.38053,0.60119,0.2544,0.60406,0.30486,0.67677,0.55201,0.11425,0.5816,0.72032,0.50524,0.69127,0.66917,0.22052,0.29169,0.45782,0.68412
0.42294,0.59955,0.60147,0.14247,0.41277,0.51762,0.24192,0.55608,0.31821,0.63419,0.51539,0.11223,0.50619,0.66045,0.43886,0.54754,0.60369,0.29002,0.30174,0.37728,0.58979
0.53932,0.66127,0.66553,0.52698,0.42698,0.49126,0.22344,0.49468,0.25537,0.47657,0.53013,0.06844,0.59154,0.68453,0.58129,0.65707,0.65444,0.20871,0.31159,0.44894,0.63686
0.44801,0.59047,0.6165,0.14535,0.41288,0.46959,0.25719,0.5027,0.29319,0.45757,0.47391,0.10621,0.47864,0.61649,0.48578,0.6833,0.62128,0.20963,0.28334,0.38584,0.58538
0.44931,0.58877,0.59783,0.15304,0.41444,0.47984,0.21496,0.47993,0.25553,0.46242,0.50868,0.0829,0.44918,0.64613,0.43587,0.57651,0.56791,0.24984,0.29118,0.36999,0.55259
0.4532,0.57021,0.59273,0.18489,0.43274,0.52578,0.25815,0.54691,0.31534,0.61625,0.51859,0.12018,0.61355,0.77695,0.50562,0.70173,0.63552,0.1599,0.27477,0.41137,0.64145
0.54616,0.67496,0.69678,0.14729,0.49631,0.60226,0.35552,0.67652,0.67286,1.11499,0.55881,0.16553,0.71528,0.80279,0.61952,0.7633,0.80237,0.23963,0.32087,0.46303,0.75494
0.3789,0.53644,0.49956,0.13822,0.33101,0.41961,0.18454,0.42456,0.22797,0.43778,0.42015,0.07355,0.38862,0.58063,0.4606,0.5562,0.54977,0.13693,0.2836,0.34885,0.52601
0.45129,0.5754,0.6466,0.17506,0.41399,0.51277,0.21602,0.54714,0.26929,0.50701,0.53322,0.07854,0.5316,0.66557,0.4882,0.66253,0.6425,0.23372,0.2838,0.37994,0.62939
0.47641,0.65653,0.66679,0.15782,0.45548,0.51911,0.24905,0.50646,0.28674,0.55134,0.59508,0.1047,0.53992,0.64261,0.49584,0.67233,0.61641,0.24466,0.30985,0.37437,0.61109
0.37464,0.5049,0.52564,0.14851,0.37931,0.43793,0.20972,0.48368,0.24859,0.4859,0.42616,0.08448,0.48311,0.62098,0.42257,0.60563,0.56816,0.21987,0.24398,0.34606,0.55305
0.4522,0.5888,0.55765,0.643,0.40555,0.50015,0.24496,0.5253,0.34943,0.54353,0.52298,0.12032,0.58358,0.7536,0.48602,0.75271,0.61564,0.23768,0.28493,0.48468,0.68799
0.44039,0.57787,0.55681,0.16657,0.3865,0.53537,0.22481,0.56888,0.28219,0.55337,0.52417,0.09854,0.52835,0.6376,0.54978,0.6437,0.614,0.31783,0.29286,0.47663,0.55738
0.44324,0.60523,0.56994,2.86109,0.40329,0.48886,0.21192,0.50443,0.28411,0.53139,0.49598,0.08869,0.44152,0.60738,0.44121,0.64602,0.58186,0.21474,0.29071,0.38439,0.53708
0.46206,0.69878,0.649,0.41295,0.44549,0.62236,0.24198,0.58962,0.33335,0.55637,0.58712,0.12111,0.42287,0.55437,0.44211,0.70304,0.60946,0.20913,0.27861,0.34163,0.56201
0.40698,0.5899,0.59472,0.14499,0.38747,0.46842,0.23688,0.45205,0.2788,0.47788,0.49724,0.10961,0.45295,0.60688,0.43151,0.63905,0.61174,0.21414,0.25943,0.36004,0.61098
0.55111,0.69852,0.76177,0.15403,0.50761,0.60603,0.40652,0.60274,0.42121,0.58931,0.62074,0.10207,0.60842,0.71408,0.61492,0.76738,0.76412,0.2488,0.38359,0.43506,0.65684
