"C3","C4","CZ","EMG","F3","F4","F7","F8","FP1","FP2","FZ","LOG","O1","O2","P3","P4","PZ","ROG","T3","T4","T5","T6"
0.00916,0.01205,0.01129,0.05594,0.01186,1.00416,0.04617,0.79352,0.00771,0.07934,0.72012,0.00258,0.00705,0.01447,0.0674,0.01111,0.01033,0.00361,0.0067,0.01148,0.00676,0.02963
0.00738,0.00707,0.00977,0.01161,0.0062,1.07624,0.00429,0.80276,0.00849,0.03406,0.66504,0.00301,0.00523,0.00671,0.069,0.0116,0.00809,0.00237,0.00523,0.00494,0.00572,0.00742
0.00867,0.00927,0.01086,0.025,0.0114,1.12738,0.04604,0.62348,0.00761,0.07825,0.61659,0.00239,0.00696,0.00972,0.07554,0.01217,0.00933,0.00297,0.0061,0.00712,0.00671,0.00925
0.0089,0.01035,0.01065,0.04468,0.00625,1.32279,0.00425,0.98008,0.00847,0.03285,0.91036,0.00225,0.00826,0.00951,0.0687,0.01497,0.0093,0.00282,0.0057,0.00703,0.00658,0.009
0.0072,0.00861,0.00844,0.06714,0.01132,1.90877,0.04598,1.54516,0.00756,0.0785,1.22469,0.00227,0.00627,0.00803,0.06605,0.01735,0.00846,0.00313,0.00546,0.00597,0.00605,0.00978
0.01035,0.01129,0.0116,0.06044,0.00621,2.40486,0.00429,1.32108,0.00841,0.03316,1.11099,0.00252,0.00607,0.00902,0.07009,0.01912,0.00959,0.0034,0.00646,0.00794,0.0062,0.02283
0.01201,0.01623,0.01334,0.06533,0.01142,1.47892,0.04593,1.01256,0.00756,0.07881,1.00422,0.00239,0.01073,0.01699,0.06809,0.01265,0.01344,0.0035,0.01144,0.01478,0.0107,0.0346
0.0103,0.01462,0.01356,0.06925,0.00621,0.9114,0.00441,0.84182,0.00857,0.03295,0.6329,0.00274,0.00715,0.00984,0.0549,0.01586,0.01012,0.00425,0.00741,0.01198,0.00707,0.03304
0.01164,0.0114,0.01288,0.02619,0.01136,0.83696,0.04589,0.67768,0.00744,0.07883,0.73819,0.00348,0.00753,0.01006,0.05989,0.02353,0.011,0.00366,0.01019,0.00911,0.00767,0.02878
0.00856,0.0094,0.00893,0.01107,0.00643,0.7474,0.00448,0.56451,0.00876,0.03353,0.61589,0.00255,0.00767,0.00793,0.08359,0.01315,0.00936,0.00288,0.00959,0.00881,0.0075,0.00941
0.00959,0.01025,0.01215,0.00567,0.01118,0.98535,0.04585,0.67528,0.00744,0.07837,0.70616,0.00364,0.0065,0.00798,0.08141,0.01131,0.01019,0.00325,0.0066,0.00715,0.00576,0.00767
0.00744,0.00783,0.00922,0.01677,0.00641,1.29495,0.00445,0.86398,0.00869,0.0332,0.94825,0.00216,0.00679,0.00834,0.08453,0.01699,0.00857,0.00325,0.00534,0.00515,0.0056,0.0082
0.00847,0.00935,0.00971,0.0454,0.01128,1.15792,0.04587,0.76214,0.0075,0.07807,0.71922,0.00248,0.00607,0.00738,0.07028,0.02958,0.00795,0.00247,0.00603,0.00601,0.0061,0.00744
0.0115,0.01262,0.01664,0.04001,0.00635,0.85921,0.00452,0.60444,0.00859,0.03363,0.61492,0.00293,0.00751,0.00726,0.06828,0.01142,0.01177,0.00374,0.00775,0.00736,0.00827,0.00982
0.01162,0.01045,0.01286,0.05574,0.01132,1.17279,0.04585,0.99343,0.00756,0.0779,0.7779,0.00247,0.008,0.00664,0.07351,0.01248,0.01286,0.00331,0.00634,0.00675,0.00773,0.00768
0.00873,0.00816,0.00987,0.01564,0.00629,0.96518,0.00445,0.79577,0.00845,0.03347,0.62156,0.00217,0.00478,0.00538,0.09788,0.01028,0.00895,0.00294,0.00532,0.00591,0.00513,0.00683
0.00806,0.00779,0.00756,0.07505,0.01161,1.01603,0.04604,0.84745,0.00777,0.07925,0.51977,0.00252,0.00585,0.0072,0.07931,0.01104,0.00767,0.00362,0.00655,0.00728,0.00585,0.00874
0.00668,0.00787,0.00757,0.0261,0.00592,1.07913,0.00417,0.73673,0.00841,0.03334,0.60818,0.00221,0.00487,0.00621,0.08363,0.01049,0.00726,0.00298,0.00531,0.00667,0.00519,0.0076
0.00718,0.00658,0.00818,0.05386,0.01171,1.19402,0.0462,1.23189,0.00765,0.07887,0.82529,0.00204,0.00542,0.00572,0.07385,0.01274,0.00718,0.00323,0.00544,0.0063,0.00515,0.00658
0.00736,0.00726,0.00791,0.07296,0.00594,0.99833,0.00407,0.99825,0.00857,0.03345,0.58065,0.0017,0.00458,0.00632,0.06872,0.01108,0.00706,0.00227,0.00571,0.00634,0.00507,0.00773
0.0079,0.00863,0.00875,0.03469,0.01177,0.92799,0.04632,0.648,0.00752,0.07809,0.46693,0.00287,0.00495,0.00622,0.07244,0.01705,0.00755,0.00338,0.0053,0.00804,0.00524,0.00787
0.0066,0.00759,0.00783,0.03308,0.00594,0.86597,0.00406,0.73916,0.00873,0.0342,0.45546,0.00221,0.00534,0.00593,0.0712,0.01349,0.00662,0.00327,0.00468,0.00705,0.00581,0.00685
0.0062,0.00728,0.00646,0.04803,0.01173,1.07868,0.0462,0.81603,0.00742,0.07665,0.60034,0.00237,0.00503,0.00575,0.05877,0.01378,0.00624,0.0028,0.00501,0.0054,0.0047,0.00786
0.00781,0.00808,0.00982,0.03603,0.00584,1.39636,0.00415,0.87152,0.00874,0.03589,1.28109,0.00215,0.00521,0.00669,0.064,0.01417,0.00775,0.00292,0.00534,0.00616,0.00536,0.00808
0.00865,0.01033,0.01154,0.03183,0.01179,1.07396,0.04616,0.68412,0.0074,0.07505,0.76561,0.0026,0.00585,0.00652,0.05761,0.01157,0.00945,0.00297,0.00564,0.00808,0.00524,0.00828
0.02418,0.01727,0.01967,0.05536,0.006,1.20155,0.00417,0.87104,0.00857,0.03745,0.91153,0.00446,0.00954,0.00814,0.06257,0.01844,0.0193,0.00419,0.00823,0.00982,0.00981,0.01209
0.01159,0.01576,0.01805,0.02392,0.01161,1.02448,0.04608,0.80977,0.00769,0.07455,0.72813,0.00204,0.00598,0.00609,0.06247,0.01453,0.01486,0.00309,0.00517,0.00717,0.00568,0.0083
0.01094,0.01247,0.01379,0.01413,0.00596,0.72743,0.00417,0.54064,0.00837,0.03806,0.54412,0.00387,0.00599,0.00614,0.06776,0.0114,0.01118,0.00397,0.00573,0.0104,0.00612,0.0099
0.00967,0.01075,0.01413,0.03122,0.01161,1.61765,0.04618,2.30457,0.00791,0.07373,0.51427,0.003,0.00595,0.00607,0.10423,0.01104,0.00981,0.00292,0.0056,0.00768,0.00509,0.00814
0.00807,0.00871,0.01097,0.02219,0.00618,1.34365,0.00415,0.97726,0.0083,0.03745,0.74622,0.00182,0.00509,0.00446,0.06044,0.0133,0.00934,0.00247,0.00503,0.00525,0.00521,0.00672
0.00761,0.01072,0.01205,0.01647,0.00759,1.32042,0.01938,0.85843,0.00785,0.04751,0.66349,0.00213,0.00647,0.0064,0.06899,0.01258,0.01117,0.00258,0.0087,0.00593,0.00538,0.00999
0.01058,0.01059,0.01338,0.09497,0.0124,1.60492,0.04619,0.97396,0.00834,0.08306,1.01846,0.00237,0.00745,0.00769,0.0573,0.01239,0.01067,0.00333,0.00603,0.00872,0.00642,0.00953
0.00936,0.00963,0.01309,0.07241,0.0053,1.23571,0.00413,0.84391,0.00769,0.02891,0.86834,0.00258,0.00837,0.00662,0.05345,0.01135,0.01074,0.00301,0.00534,0.00693,0.00695,0.00758
0.0124,0.01285,0.01614,0.07838,0.01224,1.41032,0.0462,1.28475,0.00835,0.08238,0.8259,0.00336,0.00748,0.0071,0.07678,0.01233,0.01283,0.00344,0.00648,0.00835,0.00658,0.0091
0.00971,0.01633,0.01456,0.0199,0.00545,1.10563,0.00406,0.81339,0.00783,0.02997,0.64325,0.00255,0.00712,0.00703,0.08449,0.01264,0.01358,0.00325,0.00572,0.00904,0.00632,0.01074
0.01457,0.01632,0.01577,0.03496,0.01216,0.88929,0.04622,0.70958,0.00824,0.08217,0.45876,0.00379,0.0132,0.01031,0.07858,0.01114,0.01819,0.00514,0.0072,0.01103,0.01001,0.01117
0.00829,0.0089,0.01027,0.03437,0.00545,0.93291,0.00409,0.83807,0.00779,0.02942,0.62365,0.00202,0.00522,0.0057,0.07074,0.01406,0.00949,0.0023,0.00492,0.00664,0.00523,0.00729
0.00586,0.00767,0.00762,0.02788,0.01206,1.03563,0.04622,0.90455,0.00812,0.0818,0.6087,0.00221,0.00407,0.00489,0.06738,0.01815,0.00607,0.00286,0.00438,0.00507,0.0044,0.00652
0.00802,0.00834,0.00921,0.02859,0.00575,1.17532,0.00396,0.75737,0.00795,0.03055,0.63625,0.00209,0.00587,0.00626,0.08287,0.01088,0.00839,0.00336,0.00507,0.00784,0.00561,0.00966
0.0081,0.00884,0.01043,0.02611,0.0121,1.15757,0.04628,0.85365,0.00806,0.08125,0.58698,0.00221,0.00558,0.00634,0.08628,0.01053,0.00855,0.00284,0.0048,0.00675,0.00501,0.00799
0.00798,0.00771,0.00918,0.04911,0.00582,1.26888,0.00409,1.04268,0.00818,0.03117,0.71423,0.00217,0.00515,0.00657,0.07497,0.01176,0.00713,0.00245,0.00544,0.00509,0.00438,0.00697
0.00683,0.00755,0.009,0.04586,0.01179,1.25328,0.0462,0.92643,0.00781,0.0803,0.52497,0.00248,0.00634,0.00566,0.06356,0.01262,0.00787,0.00286,0.00489,0.0064,0.00518,0.00736
0.00773,0.01046,0.01,0.02644,0.00619,1.08487,0.00427,0.95408,0.00845,0.03344,0.54323,0.00241,0.00521,0.0064,0.08635,0.01626,0.00787,0.00272,0.00519,0.00818,0.00499,0.00894
0.00644,0.00699,0.0077,0.08585,0.01144,0.99317,0.046,0.63337,0.00756,0.07774,0.48448,0.00206,0.00567,0.00572,0.10849,0.01169,0.00724,0.00299,0.00517,0.00636,0.00573,0.00795
0.00699,0.00804,0.00806,0.06812,0.00625,1.15891,0.00429,0.88356,0.00843,0.03371,0.59729,0.00241,0.0056,0.00566,0.13463,0.01426,0.00824,0.0029,0.00481,0.0062,0.00517,0.0072
0.00607,0.00769,0.00796,0.00904,0.01126,1.67398,0.046,1.13704,0.00752,0.07843,0.77152,0.0017,0.00521,0.0053,0.08612,0.01432,0.00713,0.00272,0.0046,0.00573,0.00472,0.0066
0.0079,0.00914,0.01002,0.03658,0.00623,1.95774,0.00429,1.35788,0.00849,0.03281,1.08905,0.00241,0.00538,0.0062,0.07902,0.02518,0.00831,0.00333,0.00505,0.00757,0.00483,0.00827
0.00822,0.01201,0.00941,0.10665,0.0114,1.49822,0.04597,1.49146,0.00752,0.07876,1.39092,0.00247,0.00741,0.00794,0.08344,0.01271,0.01,0.00397,0.00509,0.00857,0.00698,0.01
0.00937,0.01192,0.01129,0.21163,0.00616,1.49757,0.00437,1.39471,0.00855,0.03281,0.92317,0.00247,0.00748,0.0083,0.07844,0.0119,0.0092,0.0038,0.00704,0.00922,0.00667,0.0126
0.00885,0.01014,0.01455,0.13317,0.01134,1.39658,0.04585,1.24845,0.00742,0.07889,0.90557,0.00208,0.00699,0.01078,0.08232,0.01153,0.00789,0.00311,0.00611,0.00758,0.00556,0.01477
0.0083,0.011,0.01245,0.08036,0.00633,1.32335,0.00448,0.97377,0.00871,0.0333,0.79206,0.0028,0.00533,0.00694,0.08247,0.01194,0.00894,0.0036,0.00515,0.00822,0.00571,0.01261
0.01148,0.01692,0.01706,0.08965,0.01136,1.87161,0.04581,1.4979,0.00734,0.07825,1.12895,0.00294,0.00667,0.0079,0.06666,0.0125,0.01474,0.00364,0.00612,0.01058,0.00661,0.016
0.0086,0.0091,0.01179,0.0431,0.00639,1.91409,0.00452,1.95244,0.00867,0.03341,1.44209,0.00231,0.00507,0.00531,0.05863,0.01315,0.00727,0.00319,0.00562,0.00703,0.00564,0.01236
0.01006,0.01013,0.01182,0.1852,0.01124,1.3012,0.04583,1.60397,0.00752,0.0785,1.17688,0.00268,0.00737,0.00796,0.06613,0.01194,0.00933,0.00399,0.00636,0.0097,0.00679,0.01624
0.00828,0.0091,0.01123,0.11208,0.00639,1.72635,0.0045,1.25259,0.00857,0.03351,1.31011,0.00256,0.0055,0.00769,0.07749,0.01577,0.00844,0.00411,0.00677,0.01014,0.00574,0.01312
0.00681,0.00844,0.01002,0.07063,0.0112,1.18001,0.04583,1.00387,0.00759,0.0778,0.91775,0.00188,0.00491,0.00658,0.06332,0.01655,0.00672,0.00362,0.0054,0.00881,0.00532,0.01354
0.00814,0.01039,0.00988,0.07547,0.00641,1.23109,0.00446,1.20979,0.00855,0.03367,1.0822,0.00264,0.00571,0.00644,0.05889,0.01255,0.0081,0.00337,0.00503,0.00814,0.0063,0.01292
0.00716,0.00772,0.00852,0.04933,0.0115,1.15715,0.04593,1.29324,0.00767,0.07827,1.17264,0.00215,0.00484,0.00577,0.06576,0.0185,0.0065,0.00309,0.00569,0.00701,0.00476,0.01186
0.00736,0.00847,0.00943,0.05564,0.00604,1.53669,0.00431,1.40512,0.00843,0.03386,1.15969,0.00211,0.00546,0.00644,0.06027,0.01115,0.0079,0.00305,0.00503,0.00726,0.00513,0.01278
0.00814,0.00822,0.01017,0.05001,0.01169,5.01734,0.04616,5.10218,0.00781,0.07915,5.16654,0.00274,0.00597,0.00771,0.06441,0.01473,0.00722,0.00301,0.00536,0.00794,0.00612,0.01311
0.00689,0.00918,0.00982,0.0733,0.00594,3.76251,0.00411,3.80137,0.00851,0.03353,4.092,0.00231,0.00591,0.00689,0.05391,0.01554,0.00845,0.00356,0.00491,0.00912,0.00618,0.01467
0.04699,0.04592,0.04914,0.08965,0.01177,1.02952,0.0463,0.74209,0.00763,0.07762,0.6311,0.00721,0.04316,0.04415,0.05329,0.01159,0.04728,0.0071,0.04614,0.04416,0.04361,0.04935
0.03288,0.03474,0.034,0.05219,0.00598,0.74957,0.00406,0.58442,0.00859,0.03457,0.52194,0.00607,0.02975,0.03102,0.06878,0.01492,0.03371,0.00738,0.03007,0.03434,0.03051,0.0356
0.00706,0.00739,0.00903,0.01502,0.01173,0.72627,0.0462,0.63216,0.00744,0.07675,0.5794,0.00265,0.0059,0.00565,0.07633,0.01403,0.00737,0.00332,0.00555,0.00638,0.00531,0.00763
0.00695,0.00695,0.00787,0.01009,0.00586,0.89847,0.00415,0.91205,0.00876,0.03587,0.64334,0.00276,0.00585,0.00667,0.07603,0.01075,0.00759,0.00237,0.00513,0.00628,0.00511,0.00632
0.00777,0.00714,0.00814,0.00898,0.01179,0.82834,0.04616,0.78514,0.0075,0.07505,0.58735,0.0028,0.0064,0.00523,0.05974,0.00949,0.00744,0.0034,0.00526,0.00527,0.0062,0.00558
0.00798,0.00882,0.00918,0.02488,0.00588,1.00297,0.00413,1.30528,0.00857,0.03724,0.73601,0.01381,0.00554,0.00718,0.06801,0.01098,0.00931,0.00864,0.00649,0.00671,0.00544,0.00743
0.00765,0.00779,0.00822,0.0061,0.01173,0.61399,0.04618,0.67399,0.00773,0.07464,0.52402,0.00358,0.00562,0.00578,0.07457,0.01186,0.00908,0.00353,0.00495,0.00517,0.00493,0.00574
0.00712,0.00855,0.00857,0.00513,0.00596,1.33423,0.00413,1.60938,0.00835,0.03761,0.88751,0.00872,0.00693,0.00618,0.06786,0.00856,0.0089,0.01048,0.00493,0.00663,0.00597,0.0065
0.00734,0.00687,0.00783,0.00638,0.01161,1.99003,0.04612,2.46508,0.00793,0.07418,1.27994,0.00261,0.00517,0.00511,0.06568,0.01076,0.00722,0.00363,0.00536,0.00572,0.00552,0.00548
0.00896,0.00995,0.01212,0.0123,0.00619,0.78877,0.00419,0.69647,0.00826,0.03741,0.49678,0.02004,0.00571,0.00638,0.06741,0.01266,0.00984,0.0163,0.0055,0.00806,0.0056,0.00685
0.00797,0.01037,0.00934,0.01491,0.01142,0.57804,0.0461,0.69089,0.00781,0.07421,0.48126,0.01313,0.0062,0.00659,0.13572,0.01227,0.01025,0.01304,0.00521,0.00701,0.00622,0.00761
0.00699,0.00914,0.00787,0.00743,0.01244,0.66457,0.04622,0.75088,0.00836,0.08194,0.47295,0.00219,0.00517,0.00576,0.14839,0.01204,0.00846,0.00274,0.00513,0.00583,0.00511,0.00668
0.00679,0.00769,0.00714,0.00328,0.00528,0.69407,0.00415,0.74547,0.00783,0.02998,0.5628,0.00243,0.0045,0.00441,0.21965,0.01243,0.00687,0.00307,0.00476,0.00616,0.00454,0.00523
0.00656,0.00712,0.00773,0.00723,0.01226,0.92655,0.0462,0.88019,0.00832,0.08229,0.62444,0.00243,0.00518,0.00524,0.11332,0.01389,0.00747,0.00325,0.0047,0.00657,0.00497,0.00577
0.00669,0.00708,0.00781,0.00787,0.00538,0.85921,0.00406,0.84397,0.00773,0.03002,0.6589,0.00231,0.00466,0.00521,0.05268,0.01223,0.00695,0.00309,0.00534,0.00624,0.00511,0.0064
0.00669,0.00749,0.0083,0.02892,0.01224,0.8451,0.04626,0.80721,0.00832,0.08205,0.74988,0.00252,0.00554,0.00546,0.06461,0.01106,0.0073,0.00346,0.00458,0.00603,0.00466,0.00624
0.00642,0.00748,0.00713,0.01451,0.00539,0.83624,0.00407,0.71414,0.00775,0.02932,0.5182,0.00295,0.00548,0.0063,0.05628,0.01363,0.00734,0.00366,0.00515,0.00634,0.00581,0.00622
0.00935,0.00812,0.00962,0.02788,0.01216,0.70165,0.0462,0.54278,0.0082,0.0823,0.44183,0.00237,0.00595,0.00605,0.07052,0.01173,0.00994,0.00272,0.00554,0.00693,0.00575,0.00697
0.00682,0.00838,0.00894,0.05035,0.00557,0.76588,0.004,0.73251,0.00789,0.02981,0.75307,0.00204,0.00636,0.00646,0.09334,0.01907,0.00848,0.00313,0.00495,0.00638,0.00585,0.00669
0.00673,0.00785,0.00804,0.03164,0.01208,1.14991,0.04626,0.86879,0.00804,0.08203,0.62266,0.00205,0.00443,0.00505,0.08835,0.0131,0.00658,0.00276,0.00437,0.00616,0.00482,0.00599
0.0104,0.01685,0.01455,0.02166,0.00606,27.63008,0.00411,31.96818,0.00808,0.03036,22.47852,0.00209,0.00686,0.00767,0.07531,0.01358,0.01433,0.00211,0.00567,0.0095,0.00638,0.00896
0.00738,0.01415,0.01067,0.12094,0.01175,95.05924,0.04618,99.72203,0.00797,0.08145,65.15195,0.00223,0.00603,0.00871,0.07021,0.0112,0.00999,0.00309,0.00489,0.00885,0.0049,0.00912
0.24501,0.23477,0.22699,1.84022,0.0061,12.49992,0.00423,6.56569,0.00841,0.03198,4.40084,0.01381,0.33152,0.42402,0.07758,0.01112,0.22564,0.02051,0.24892,0.28236,0.35159,0.3243
0.54286,0.52671,0.51706,3.27994,0.01157,7.54396,0.04606,3.66056,0.00759,0.07903,2.32098,0.03458,0.64586,0.70278,0.06578,0.01125,0.49675,0.05727,0.45179,0.58014,0.50926,0.77016
0.03522,0.04816,0.0421,0.21859,0.00621,4.44923,0.00433,3.37971,0.00845,0.03416,1.84028,0.00479,0.09236,0.12571,0.08189,0.01129,0.04595,0.00521,0.02469,0.04891,0.03381,0.10398
0.02567,0.02716,0.02625,0.20525,0.01134,8.19226,0.04597,3.33258,0.00759,0.07845,2.0644,0.00329,0.09114,0.05698,0.07422,0.00987,0.02937,0.00374,0.02085,0.02976,0.04589,0.06325
0.01845,0.02415,0.02513,0.25653,0.00621,2.8193,0.00431,2.45135,0.00849,0.03291,1.56225,0.00307,0.03905,0.02339,0.07307,0.01061,0.01928,0.00337,0.01287,0.02068,0.02122,0.06889
0.01976,0.02499,0.02731,0.15611,0.0114,2.33236,0.04598,2.35803,0.00756,0.07881,1.41053,0.00299,0.04166,0.03071,0.06516,0.01096,0.0224,0.00397,0.01174,0.02242,0.02201,0.05707
0.01672,0.02411,0.02429,0.17159,0.00617,2.26797,0.00435,1.6538,0.00847,0.03281,1.14594,0.00294,0.03467,0.02367,0.06491,0.01123,0.02487,0.00335,0.01043,0.01694,0.01973,0.06359
0.0206,0.023,0.02282,0.14897,0.01138,2.01087,0.04589,1.63022,0.0075,0.07891,1.18765,0.00352,0.0314,0.02096,0.06558,0.01114,0.02419,0.00477,0.01113,0.01589,0.01869,0.05598
0.0132,0.01766,0.01483,0.05877,0.00629,1.32752,0.00448,1.4416,0.00863,0.03303,0.92318,0.00235,0.02373,0.01844,0.06042,0.01369,0.01792,0.00382,0.00891,0.01275,0.01427,0.0282
0.01676,0.0165,0.01938,0.03896,0.01138,1.83697,0.04585,1.40178,0.00742,0.07854,0.84712,0.00272,0.01739,0.01209,0.08178,0.0112,0.0165,0.00296,0.00906,0.01085,0.01151,0.01213
0.01372,0.01615,0.01592,0.03553,0.00641,2.02257,0.00448,1.88994,0.00871,0.03342,1.07988,0.00204,0.01332,0.01047,0.06545,0.01227,0.01365,0.00323,0.00758,0.00945,0.01024,0.01065
0.01083,0.01529,0.01173,0.04114,0.01118,1.83768,0.04585,1.80859,0.00738,0.07833,0.88252,0.00252,0.01133,0.01014,0.05968,0.0312,0.01114,0.00329,0.00789,0.00937,0.00984,0.01059
0.0108,0.01454,0.01594,0.06543,0.00641,1.79738,0.00452,1.78384,0.00867,0.03361,0.82479,0.00319,0.01383,0.01246,0.06215,0.01737,0.01127,0.00411,0.00681,0.01099,0.00951,0.01125
0.00965,0.01579,0.01275,0.11034,0.01122,1.49029,0.04577,1.47071,0.00754,0.0777,0.80942,0.00225,0.01403,0.0119,0.04637,0.01062,0.0109,0.00296,0.00763,0.01051,0.00973,0.01215
0.01051,0.01253,0.01452,0.1117,0.00633,1.95533,0.0045,1.54824,0.00865,0.03357,0.7731,0.00217,0.01466,0.01209,0.05491,0.0118,0.01348,0.00299,0.0072,0.00967,0.01025,0.01131
0.00971,0.01059,0.0127,0.02981,0.01161,1.32368,0.04591,1.38838,0.00761,0.07811,0.96184,0.002,0.01165,0.00997,0.05118,0.01557,0.01061,0.00294,0.00615,0.00777,0.00848,0.00963
0.0099,0.01068,0.0144,0.03547,0.0061,3.01473,0.00441,2.58629,0.00845,0.03379,1.4194,0.00231,0.01131,0.01129,0.05463,0.02304,0.01043,0.00301,0.00607,0.00818,0.00742,0.00976
0.01168,0.01092,0.01462,0.02614,0.01165,2.30436,0.0461,2.06997,0.00775,0.07872,1.4992,0.00217,0.01465,0.01336,0.05718,0.01299,0.01246,0.00315,0.0063,0.00867,0.00925,0.01148
0.01383,0.01668,0.018,0.22759,0.00586,1.47927,0.00411,1.09893,0.00845,0.03355,0.71857,0.00245,0.01815,0.01758,0.06308,0.0153,0.01397,0.00376,0.00917,0.01367,0.01232,0.01891
0.01868,0.01408,0.02117,0.13142,0.01179,0.92519,0.04622,1.13855,0.00758,0.07807,0.70465,0.00303,0.0188,0.01253,0.06944,0.01185,0.0147,0.00384,0.00877,0.0126,0.01266,0.0142
0.00879,0.01038,0.01291,0.07496,0.00598,1.58413,0.00413,1.46816,0.00869,0.03412,0.70341,0.00194,0.00685,0.00956,0.05787,0.01424,0.00931,0.00253,0.0057,0.00823,0.00645,0.01034
0.0081,0.00981,0.01278,0.04142,0.01177,1.65054,0.04624,1.59173,0.00752,0.07727,0.67424,0.00182,0.00628,0.00887,0.05371,0.01352,0.00814,0.00299,0.00558,0.00814,0.00632,0.00963
0.00838,0.01018,0.00926,0.06557,0.00582,1.79233,0.00411,1.73219,0.00871,0.03486,0.65757,0.00215,0.00726,0.01136,0.05079,0.01649,0.00865,0.00292,0.00628,0.01062,0.00665,0.01228
0.00767,0.01018,0.00937,0.08591,0.01173,1.83528,0.04614,1.56204,0.00756,0.0761,0.70462,0.00198,0.00699,0.01088,0.05256,0.02583,0.00838,0.00325,0.00548,0.01055,0.00615,0.01129
0.00722,0.00908,0.00863,0.09392,0.0059,1.66263,0.00417,1.34649,0.00859,0.03652,0.73423,0.00196,0.0064,0.01256,0.07225,0.02439,0.00791,0.00288,0.00583,0.01133,0.00638,0.0102
0.00857,0.01033,0.01027,0.11776,0.01173,1.32057,0.04616,1.04324,0.0075,0.07425,0.6169,0.00196,0.00517,0.01016,0.06346,0.01356,0.00837,0.00274,0.00542,0.01131,0.00581,0.00975
0.00824,0.01107,0.01123,0.05652,0.00596,1.185,0.00413,1.12704,0.00855,0.0386,0.5598,0.00215,0.00671,0.01258,0.05481,0.00979,0.00925,0.00305,0.00544,0.01059,0.00663,0.0098
0.00761,0.00879,0.0091,0.07738,0.01163,1.56589,0.0461,1.25478,0.00759,0.07363,0.77879,0.00184,0.00525,0.00993,0.05456,0.01166,0.00732,0.00231,0.00523,0.00815,0.00607,0.00791
0.00611,0.00859,0.00801,0.04736,0.00598,0.99493,0.00421,1.03921,0.00847,0.03794,0.59357,0.00174,0.00587,0.01055,0.05929,0.01618,0.00773,0.00254,0.00521,0.01009,0.00577,0.00972
0.00927,0.01119,0.01435,0.06968,0.01165,1.21394,0.04612,0.83836,0.00785,0.07406,0.67579,0.00235,0.00702,0.01049,0.05695,0.02603,0.00988,0.00305,0.0056,0.00834,0.00593,0.00951
0.00783,0.00883,0.00909,0.03644,0.01241,0.90823,0.0463,1.0033,0.00841,0.08202,0.56237,0.00184,0.00544,0.00777,0.0481,0.01052,0.00834,0.00272,0.00579,0.00662,0.00577,0.00791
0.00791,0.00939,0.01037,0.03679,0.00514,0.88047,0.00409,0.96577,0.00779,0.03002,0.52112,0.00188,0.00532,0.0072,0.04748,0.01318,0.00939,0.0028,0.00521,0.00677,0.00569,0.00789
0.00703,0.00752,0.00746,0.03589,0.01237,1.3877,0.0462,1.5148,0.00834,0.08217,0.64557,0.00217,0.00565,0.00759,0.05093,0.01358,0.00678,0.00282,0.00476,0.00726,0.00525,0.00724
0.00593,0.0089,0.00785,0.034,0.00534,1.20609,0.00409,1.09544,0.00771,0.03024,0.61595,0.0018,0.00526,0.00781,0.04666,0.016,0.00742,0.00292,0.00472,0.00732,0.00513,0.00816
0.00716,0.00974,0.0083,0.07167,0.0122,1.19991,0.04626,1.04737,0.00835,0.08158,0.65075,0.00211,0.00444,0.00847,0.0565,0.0131,0.00767,0.00307,0.00565,0.00931,0.00532,0.00929
0.00689,0.00918,0.00851,0.05237,0.00545,0.87176,0.00407,1.04339,0.00781,0.02971,0.66369,0.00188,0.00452,0.00758,0.04515,0.01217,0.0074,0.0027,0.00528,0.00754,0.00501,0.00861
0.008,0.00972,0.00996,0.07706,0.01214,3.64625,0.04618,1.28014,0.00816,0.08238,0.83325,0.00205,0.00483,0.00673,0.05206,0.01184,0.008,0.00317,0.00491,0.00824,0.00538,0.00898
0.00787,0.00834,0.00965,0.05087,0.00549,1.04546,0.00407,0.79332,0.00791,0.02957,0.63376,0.00227,0.00546,0.00843,0.05496,0.01243,0.00982,0.00311,0.00548,0.00754,0.00585,0.00871
0.00875,0.01308,0.01148,0.19543,0.01204,1.68997,0.04622,1.23739,0.00802,0.08139,1.21018,0.00307,0.00884,0.01326,0.06997,0.01069,0.0118,0.00368,0.007,0.01341,0.0078,0.01349
0.00797,0.01085,0.01102,0.05357,0.00616,0.86002,0.00409,0.70345,0.0082,0.03106,0.58797,0.00231,0.0056,0.00854,0.05613,0.00934,0.00963,0.00294,0.00538,0.00745,0.00582,0.0078
0.01359,0.01613,0.02207,0.10372,0.01177,1.41982,0.04622,0.78551,0.00789,0.08088,0.61906,0.0029,0.01292,0.00955,0.0513,0.01908,0.01459,0.00368,0.00745,0.00896,0.00837,0.0108
0.0068,0.00841,0.00983,0.01653,0.00578,1.19123,0.00409,0.7896,0.00818,0.03223,0.49359,0.00202,0.00563,0.00555,0.05879,0.01178,0.00854,0.00294,0.0049,0.00586,0.0058,0.00637
0.00745,0.00869,0.0099,0.05154,0.01187,1.22573,0.04618,0.95783,0.00773,0.0794,0.57036,0.00221,0.00921,0.00901,0.05611,0.00932,0.00826,0.00235,0.00581,0.0057,0.00691,0.00695
0.0065,0.00992,0.00805,0.0476,0.0062,0.89771,0.00429,0.85918,0.00849,0.03406,0.62654,0.00213,0.00596,0.00627,0.05419,0.01394,0.0072,0.00264,0.00517,0.00634,0.00511,0.00742
0.00755,0.00822,0.00843,0.06605,0.0114,1.23296,0.04604,0.99992,0.00761,0.07825,1.1123,0.00194,0.00571,0.00771,0.10024,0.01173,0.00779,0.00295,0.00476,0.00775,0.00515,0.00751
0.008,0.00873,0.01029,0.05995,0.00625,0.91762,0.00425,0.81404,0.00847,0.03285,0.77184,0.00239,0.0055,0.00767,0.19633,0.01127,0.00882,0.00274,0.00567,0.00748,0.00548,0.00748
0.01273,0.01185,0.01924,0.07199,0.01132,1.17681,0.04598,0.98065,0.00756,0.0785,0.72274,0.00219,0.00741,0.00847,0.12763,0.01903,0.01377,0.00317,0.00589,0.00683,0.00589,0.00861
0.01094,0.01188,0.01633,0.11873,0.00621,3.68929,0.00429,1.34145,0.00841,0.03316,0.78399,0.00219,0.00759,0.0099,0.07029,0.02732,0.01093,0.00329,0.00595,0.00775,0.00671,0.00859
0.0091,0.01225,0.0113,0.07802,0.01142,2.82705,0.04593,1.85082,0.00756,0.07881,1.68358,0.00243,0.01097,0.01713,0.08215,0.01076,0.01117,0.00311,0.00566,0.00863,0.00699,0.01052
0.00861,0.00879,0.00942,0.13599,0.00621,1.50841,0.00441,1.31887,0.00857,0.03295,0.78733,0.00215,0.01217,0.01415,0.06932,0.0108,0.00994,0.00338,0.00655,0.0091,0.00831,0.01035
0.01879,0.01939,0.01982,0.08946,0.01136,1.05756,0.04589,0.81965,0.00744,0.07883,0.5716,0.00315,0.01827,0.01641,0.06978,0.01373,0.01576,0.00383,0.01003,0.0141,0.01109,0.01691
0.00859,0.01387,0.0125,0.05269,0.00643,1.56271,0.00448,1.03582,0.00876,0.03353,1.08565,0.00256,0.01175,0.01183,0.06219,0.01491,0.01118,0.00346,0.00631,0.0112,0.00772,0.01146
0.00801,0.01001,0.01075,0.0459,0.01118,1.17583,0.04585,0.89396,0.00744,0.07837,0.78255,0.00209,0.00744,0.00938,0.0544,0.02513,0.01094,0.00268,0.00527,0.00703,0.0065,0.00957
0.01595,0.01686,0.02334,0.06259,0.00641,1.18589,0.00445,1.16274,0.00869,0.0332,0.92012,0.00352,0.01314,0.01363,0.06645,0.01292,0.01762,0.00315,0.00819,0.0099,0.00902,0.01492
0.00876,0.00992,0.01315,0.03151,0.01128,1.30448,0.04587,0.95364,0.0075,0.07807,0.73014,0.003,0.00616,0.006,0.04429,0.01956,0.01037,0.00329,0.0055,0.00666,0.0058,0.00745
0.00967,0.01221,0.01516,0.06805,0.00635,1.28733,0.00452,0.90688,0.00859,0.03363,0.69459,0.00278,0.00734,0.00896,0.04845,0.01324,0.01055,0.00356,0.00579,0.00964,0.00648,0.01064
0.00805,0.01026,0.01216,0.06867,0.01132,0.91386,0.04585,0.5713,0.00756,0.0779,0.50128,0.00186,0.00761,0.00947,0.04646,0.012,0.00871,0.00323,0.00546,0.00773,0.00579,0.00846
0.00961,0.01162,0.01311,0.04162,0.00629,0.96802,0.00445,0.72627,0.00845,0.03347,0.47164,0.00172,0.00746,0.00877,0.06089,0.01307,0.01176,0.00286,0.00448,0.008,0.0054,0.00927
0.00693,0.00733,0.00819,0.03168,0.01161,0.84205,0.04604,0.66857,0.00777,0.07925,0.58491,0.00172,0.00599,0.00627,0.05996,0.01122,0.00731,0.00282,0.00495,0.00556,0.0055,0.00566
0.0065,0.0082,0.00759,0.03983,0.00592,1.08209,0.00417,0.77509,0.00841,0.03334,0.51815,0.00213,0.00456,0.00572,0.06367,0.01053,0.00775,0.00288,0.00433,0.00618,0.0047,0.00648
0.00798,0.00816,0.01003,0.01818,0.01171,1.01747,0.0462,0.73878,0.00765,0.07887,0.51168,0.0018,0.00663,0.00693,0.07559,0.01287,0.0081,0.0029,0.00501,0.00669,0.00524,0.00722
0.0067,0.00802,0.0082,0.0873,0.00594,0.9948,0.00407,0.58914,0.00857,0.03345,0.41996,0.00202,0.0057,0.00624,0.09692,0.01702,0.00834,0.00301,0.00464,0.00716,0.00505,0.00734
0.00769,0.00738,0.0081,0.01517,0.01177,22.40575,0.04632,3.42418,0.00752,0.07809,2.6,0.00196,0.00626,0.0057,0.06283,0.00972,0.00713,0.00286,0.00497,0.00656,0.0053,0.0065
0.00601,0.00724,0.00648,0.01653,0.00594,15.35929,0.00406,5.50069,0.00873,0.0342,3.18937,0.00211,0.00468,0.0053,0.07786,0.0125,0.00617,0.00278,0.00444,0.00548,0.00454,0.00835
0.01687,0.03554,0.02312,0.49675,0.01173,13.94777,0.0462,2.48205,0.00742,0.07665,2.19088,0.03004,0.01024,0.03189,0.06912,0.01459,0.01542,0.01034,0.01145,0.05038,0.01298,0.16861
0.0139,0.02859,0.01887,0.37923,0.00584,9.90664,0.00415,3.2993,0.00874,0.03589,2.58528,0.03389,0.01141,0.01643,0.06117,0.01392,0.01603,0.00732,0.01041,0.03934,0.01157,0.13033
0.01208,0.0182,0.01515,0.48764,0.01179,27.3815,0.04616,2.71244,0.0074,0.07505,5.50021,0.01096,0.00856,0.01173,0.05817,0.01723,0.01366,0.00724,0.01195,0.02764,0.01145,0.054
0.02327,0.02539,0.0231,0.74398,0.006,5.73112,0.00417,1.74211,0.00857,0.03745,2.92861,0.01737,0.0207,0.02008,0.05324,0.01048,0.02282,0.00994,0.05053,0.04017,0.02065,0.10315
0.02514,0.02284,0.0185,0.72067,0.01161,1.53313,0.04608,1.05188,0.00769,0.07455,1.32238,0.01507,0.02252,0.01977,0.05309,0.01233,0.02292,0.00582,0.06002,0.04924,0.01248,0.05581
0.0195,0.02735,0.01367,0.17065,0.00596,1.29005,0.00417,0.8735,0.00837,0.03806,0.89405,0.00288,0.01297,0.01363,0.04907,0.0111,0.01641,0.00478,0.01434,0.01576,0.00924,0.02862
0.01933,0.02097,0.01169,0.10772,0.01161,1.63846,0.04618,1.42464,0.00791,0.07373,1.32751,0.00219,0.00919,0.00948,0.04955,0.00885,0.01185,0.00364,0.00684,0.00829,0.00709,0.02445
0.00701,0.00877,0.00817,0.03246,0.00618,3.77355,0.00415,2.6411,0.0083,0.03745,2.33189,0.00207,0.00504,0.00773,0.04201,0.00945,0.00676,0.00325,0.00749,0.00959,0.00486,0.01241
0.00835,0.01127,0.01007,0.06534,0.00759,1.38862,0.01938,1.166,0.00785,0.04751,1.2027,0.00202,0.00604,0.00796,0.05311,0.01433,0.00894,0.00317,0.01113,0.01146,0.00509,0.01223
0.02189,0.02537,0.0232,0.16569,0.0124,1.20181,0.04619,1.15056,0.00834,0.08306,1.17854,0.00235,0.02714,0.03654,0.05415,0.01145,0.02582,0.00333,0.02063,0.02375,0.02329,0.03539
0.01166,0.012,0.00967,0.07054,0.0053,1.01848,0.00413,0.7459,0.00769,0.02891,0.98675,0.00258,0.00804,0.00906,0.06548,0.01164,0.01056,0.00356,0.01207,0.01141,0.00594,0.01134
0.01168,0.01143,0.00869,0.03793,0.01224,0.81338,0.0462,0.73089,0.00835,0.08238,0.73577,0.00188,0.00781,0.00703,0.06591,0.0116,0.00934,0.00354,0.00993,0.0103,0.00575,0.01629
0.01225,0.0126,0.01265,0.03244,0.00545,0.99458,0.00406,0.69496,0.00783,0.02997,0.94935,0.00207,0.0074,0.00724,0.06829,0.01311,0.01072,0.00311,0.00916,0.00777,0.00548,0.01468
0.00991,0.0095,0.00954,0.01641,0.01216,0.88456,0.04622,0.76155,0.00824,0.08217,0.96404,0.00188,0.0073,0.00656,0.05136,0.01163,0.00803,0.00323,0.00896,0.00769,0.0053,0.00784
0.00937,0.01098,0.01252,0.03695,0.00545,1.00544,0.00409,0.90682,0.00779,0.02942,0.97831,0.00239,0.00781,0.00771,0.0684,0.01139,0.01246,0.00321,0.00832,0.00685,0.00513,0.01162
0.0098,0.01713,0.01446,0.00851,0.01206,0.59009,0.04622,0.57054,0.00812,0.0818,0.67845,0.00307,0.00765,0.00843,0.06174,0.01057,0.01336,0.00323,0.00759,0.00947,0.00567,0.01028
0.01096,0.01894,0.01448,0.00892,0.00575,0.61912,0.00396,0.83383,0.00795,0.03055,0.52168,0.0028,0.00818,0.00791,0.0602,0.01043,0.01266,0.00381,0.00773,0.01066,0.00677,0.0102
0.01043,0.01111,0.01013,0.00611,0.0121,0.78728,0.04628,0.88557,0.00806,0.08125,0.62637,0.00192,0.00679,0.00613,0.04557,0.01656,0.01051,0.00243,0.0083,0.0067,0.00533,0.00785
0.00682,0.01516,0.01031,0.00919,0.00582,0.7549,0.00409,0.77312,0.00818,0.03117,0.65743,0.00223,0.00615,0.00771,0.04567,0.01245,0.01199,0.00266,0.0056,0.0087,0.00462,0.01039
0.00818,0.01286,0.01045,0.01449,0.01179,0.74962,0.0462,0.76247,0.00781,0.0803,0.70457,0.00213,0.00712,0.00779,0.06536,0.01278,0.0087,0.00233,0.00489,0.00849,0.00559,0.0084
0.00824,0.0162,0.01404,0.00839,0.00619,1.15478,0.00427,1.08127,0.00845,0.03344,0.88229,0.00194,0.00529,0.00673,0.05026,0.00981,0.01275,0.00215,0.00556,0.00742,0.00517,0.00752
0.0097,0.01464,0.01292,0.00922,0.01144,1.39284,0.046,1.08379,0.00756,0.07774,0.98741,0.00227,0.00724,0.00767,0.07637,0.01076,0.0101,0.00297,0.00689,0.00882,0.00593,0.0083
0.009,0.01278,0.01315,0.09412,0.00625,1.73124,0.00429,1.32196,0.00843,0.03371,1.43234,0.00217,0.01269,0.00923,0.07029,0.01313,0.01029,0.0029,0.00712,0.0101,0.00779,0.00941
0.0141,0.01567,0.0151,0.15727,0.01126,1.13723,0.046,0.97323,0.00752,0.07843,0.90221,0.00264,0.02731,0.01439,0.07473,0.01446,0.01424,0.00282,0.00949,0.01068,0.0156,0.01027
0.02464,0.01972,0.02503,0.11175,0.00623,1.32601,0.00429,0.7184,0.00849,0.03281,1.02043,0.00325,0.01404,0.01241,0.07399,0.01268,0.02009,0.0034,0.01062,0.01293,0.01011,0.0127
0.01218,0.01361,0.01464,0.10215,0.0114,0.90544,0.04597,1.00816,0.00752,0.07876,0.7415,0.00262,0.01202,0.00958,0.06686,0.01055,0.01383,0.00344,0.00707,0.00891,0.00818,0.0094
0.01475,0.01694,0.02186,0.161,0.00616,0.8621,0.00437,0.8073,0.00855,0.03281,0.81395,0.00288,0.01434,0.01066,0.04992,0.01065,0.01782,0.00397,0.00662,0.00828,0.00873,0.009
0.00968,0.0131,0.01332,0.04287,0.01134,0.6352,0.04585,0.59953,0.00742,0.07889,0.57425,0.00233,0.00741,0.00836,0.04654,0.01076,0.01228,0.0028,0.00593,0.00851,0.0065,0.00812
0.00969,0.01235,0.01708,0.02764,0.00633,0.80673,0.00448,0.84592,0.00871,0.0333,0.71618,0.00237,0.009,0.00908,0.05449,0.01119,0.01436,0.0027,0.00515,0.00802,0.00632,0.00863
0.00846,0.00874,0.01171,0.01273,0.01136,0.69441,0.04581,0.78169,0.00734,0.07825,0.63197,0.0019,0.00457,0.00504,0.10845,0.0111,0.00804,0.00245,0.0053,0.00607,0.00532,0.00584
0.00773,0.00951,0.01145,0.01042,0.00639,0.49665,0.00452,0.45016,0.00867,0.03341,0.4401,0.00202,0.00552,0.00606,0.08685,0.01168,0.00752,0.00311,0.0047,0.008,0.00478,0.00769
0.00742,0.00865,0.00916,0.01117,0.01124,0.5781,0.04583,0.58643,0.00752,0.0785,0.47361,0.00204,0.00552,0.00706,0.06964,0.02578,0.00785,0.00327,0.00509,0.00736,0.0047,0.00705
0.00548,0.00693,0.00697,0.00559,0.00639,0.64486,0.0045,0.92402,0.00857,0.03351,0.59919,0.002,0.0047,0.00531,0.06307,0.01829,0.00656,0.00231,0.00417,0.00587,0.00513,0.00556
0.0063,0.00699,0.00722,0.00665,0.0112,0.88899,0.04583,0.93346,0.00759,0.0778,0.76832,0.0017,0.00431,0.00472,0.05364,0.01742,0.00597,0.0026,0.00409,0.00552,0.00388,0.00562
0.00747,0.00769,0.00894,0.00624,0.00641,0.64777,0.00446,0.78714,0.00855,0.03367,0.58576,0.01545,0.0062,0.0061,0.06485,0.02058,0.00806,0.00909,0.00516,0.00644,0.00512,0.00589
0.00816,0.00892,0.0107,0.00482,0.0115,0.72146,0.04593,1.00816,0.00767,0.07827,1.21978,0.01116,0.00677,0.00691,0.04884,0.0201,0.00921,0.01135,0.00575,0.007,0.00571,0.00737
0.00871,0.00928,0.00805,0.01083,0.00604,0.68815,0.00431,0.74445,0.00843,0.03386,1.17469,0.00403,0.00767,0.00874,0.07025,0.28326,0.00971,0.00467,0.01171,0.00769,0.00513,0.00837
0.01406,0.01732,0.00939,0.01369,0.01169,0.56636,0.04616,0.60374,0.00781,0.07915,0.64194,0.01429,0.01009,0.0075,0.05947,0.19528,0.01191,0.01458,0.02285,0.0122,0.00606,0.01224
0.01317,0.01539,0.01031,0.00505,0.00594,0.60929,0.00411,0.80298,0.00851,0.03353,0.52647,0.00384,0.00922,0.00835,0.05555,2.30782,0.01149,0.00477,0.01356,0.00991,0.00579,0.01108
0.00725,0.00763,0.00856,0.00794,0.01177,0.68189,0.0463,0.85112,0.00763,0.07762,0.84023,0.00212,0.0043,0.00543,0.04784,1.48822,0.00744,0.00319,0.00485,0.00545,0.00476,0.00539
0.00652,0.00794,0.00797,0.00468,0.00598,0.5176,0.00406,0.65465,0.00859,0.03457,0.81594,0.00561,0.00518,0.00569,0.05525,2.03705,0.00677,0.00612,0.00546,0.00581,0.00476,0.00687
0.01089,0.01007,0.00941,0.00503,0.01173,0.45357,0.0462,0.5539,0.00744,0.07675,0.90048,0.00751,0.00804,0.00693,0.05935,3.54472,0.00906,0.00777,0.01187,0.00732,0.00606,0.00892
0.01004,0.01256,0.00971,0.00767,0.00586,0.61012,0.00415,0.55159,0.00876,0.03587,0.91467,0.00277,0.00738,0.00732,0.06123,1.69729,0.00947,0.00334,0.0159,0.00935,0.00482,0.01027
0.01027,0.01233,0.00697,0.00541,0.01179,0.81455,0.04616,0.62192,0.0075,0.07505,0.61263,0.00167,0.00855,0.00789,0.0542,1.62802,0.00924,0.00227,0.019,0.00947,0.00415,0.01076
0.01014,0.01102,0.00773,0.02214,0.00588,0.6655,0.00413,0.62877,0.00857,0.03724,0.5354,0.00168,0.00779,0.0066,0.0513,2.44597,0.00974,0.0028,0.01318,0.00789,0.00458,0.00783
0.00795,0.00928,0.0098,0.05373,0.01173,0.47099,0.04618,0.55836,0.00773,0.07464,0.42194,0.00223,0.00539,0.00527,0.05082,1.0214,0.00818,0.00329,0.00514,0.00685,0.00433,0.00654
0.00818,0.00789,0.01205,0.01348,0.00596,0.50461,0.00413,0.47465,0.00835,0.03761,0.43254,0.00215,0.00591,0.00597,0.0452,0.45698,0.00982,0.00288,0.00476,0.00595,0.00575,0.00679
0.00554,0.00642,0.00711,0.00331,0.01161,0.60429,0.04612,0.71114,0.00793,0.07418,0.49233,0.00209,0.00536,0.00587,0.04708,0.3646,0.00609,0.00268,0.00476,0.00548,0.00427,0.00593
0.00753,0.00741,0.00744,0.00305,0.00619,0.70245,0.00419,0.81514,0.00826,0.03741,0.56192,0.00164,0.00497,0.0056,0.04687,0.2602,0.00734,0.00251,0.0055,0.00513,0.00518,0.00534
0.00726,0.00892,0.01019,0.00739,0.01142,0.49813,0.0461,0.50503,0.00781,0.07421,0.46668,0.00168,0.00491,0.00671,0.04884,0.08619,0.00947,0.00278,0.00534,0.00761,0.00462,0.00708
0.00757,0.00929,0.00938,0.01003,0.01244,0.48994,0.04622,0.46999,0.00836,0.08194,0.46329,0.00221,0.00671,0.00878,0.04269,0.07886,0.00851,0.00315,0.00534,0.00814,0.00515,0.00884
0.00619,0.00633,0.00744,0.00432,0.00528,0.78721,0.00415,0.78703,0.00783,0.02998,0.72368,0.00182,0.00527,0.00594,0.06846,0.09937,0.0067,0.00229,0.00448,0.00496,0.00499,0.00465
0.00675,0.00915,0.00867,0.00446,0.01226,0.61494,0.0462,0.67519,0.00832,0.08229,0.55946,0.00164,0.00597,0.0064,0.05562,0.10365,0.01003,0.00243,0.00475,0.00571,0.00493,0.0063
0.00896,0.01074,0.01013,0.01495,0.00538,0.5295,0.00406,0.47901,0.00773,0.03002,0.55228,0.00241,0.00538,0.00634,0.04495,1.1312,0.0091,0.00317,0.00501,0.00898,0.0044,0.00698
0.00767,0.01051,0.00912,0.01456,0.01224,0.59982,0.04626,0.69306,0.00832,0.08205,0.51901,0.00233,0.00528,0.00632,0.0819,0.37197,0.00818,0.00266,0.00474,0.00746,0.00436,0.00744
0.00693,0.00996,0.00906,0.00753,0.00539,0.74342,0.00407,0.8076,0.00775,0.02932,0.67039,0.00204,0.00497,0.00509,0.06868,1.18836,0.00714,0.00268,0.00483,0.00687,0.00454,0.00601
0.00583,0.009,0.00902,0.00705,0.01216,0.48803,0.0462,0.50779,0.0082,0.0823,0.39961,0.00174,0.00491,0.00663,0.05006,0.45236,0.00767,0.00254,0.00436,0.0066,0.00397,0.00638
0.00816,0.00963,0.00965,0.00749,0.00557,0.46593,0.004,0.50244,0.00789,0.02981,0.42619,0.00248,0.00767,0.00839,0.05426,0.11014,0.00945,0.00333,0.00577,0.00747,0.00522,0.00804
0.00648,0.00777,0.00812,0.00421,0.01208,0.84446,0.04626,0.88885,0.00804,0.08203,0.6998,0.00153,0.00435,0.00523,0.06284,0.10152,0.0073,0.00235,0.00448,0.00437,0.00429,0.00505
0.00589,0.00634,0.00757,0.00417,0.00606,0.53013,0.00411,0.63607,0.00808,0.03036,0.44465,0.00151,0.0045,0.0048,0.06001,0.08039,0.00691,0.00227,0.00454,0.00452,0.00407,0.00526
0.00782,0.01113,0.01179,0.01259,0.01175,0.45541,0.04618,0.50001,0.00797,0.08145,0.42298,0.00178,0.00419,0.00661,0.04637,0.09711,0.00863,0.00254,0.00487,0.00897,0.00442,0.00761
0.0066,0.00785,0.00774,0.01088,0.0061,0.53528,0.00423,0.52967,0.00841,0.03198,0.48458,0.00166,0.00563,0.00634,0.04376,0.15068,0.00765,0.00272,0.00454,0.00711,0.0045,0.00695
0.00589,0.0063,0.00668,0.00447,0.01157,0.57237,0.04606,0.64738,0.00759,0.07903,0.48134,0.00143,0.00484,0.00474,0.05409,0.13611,0.00613,0.00231,0.00477,0.00496,0.00413,0.00501
0.00669,0.00675,0.00724,0.00489,0.00621,0.64471,0.00433,0.74386,0.00845,0.03416,0.48424,0.00116,0.00468,0.00507,0.06557,0.13159,0.00716,0.00233,0.0047,0.00511,0.00442,0.00476
0.00593,0.00802,0.00703,0.00673,0.01134,0.58591,0.04597,0.64624,0.00759,0.07845,0.49292,0.00186,0.00456,0.00493,0.048,0.12616,0.00574,0.00227,0.00448,0.00688,0.00458,0.00595
0.0062,0.00748,0.00816,0.01126,0.00621,0.51665,0.00431,0.54157,0.00849,0.03291,0.45885,0.00192,0.0047,0.00581,0.04972,0.12447,0.00735,0.00256,0.00446,0.00714,0.00481,0.00661
0.00671,0.00802,0.00793,0.00508,0.0114,0.90906,0.04598,0.82137,0.00756,0.07881,0.5907,0.00172,0.00462,0.00474,0.05322,0.09985,0.00718,0.00288,0.00464,0.00699,0.0047,0.00572
0.00538,0.00738,0.0067,0.00401,0.00617,0.70262,0.00435,0.70992,0.00847,0.03281,0.58143,0.00752,0.00395,0.00511,0.05598,0.09215,0.00642,0.00555,0.00479,0.00538,0.00436,0.00519
0.00757,0.00865,0.00853,0.04188,0.01138,0.74475,0.04589,0.51887,0.0075,0.07891,0.56621,0.00927,0.00538,0.00675,0.05661,0.10096,0.00741,0.00716,0.00563,0.00669,0.00534,0.00634
0.00748,0.0081,0.00939,0.01092,0.00629,0.53382,0.00448,0.44021,0.00863,0.03303,0.35482,0.00207,0.00636,0.00673,0.05534,0.09572,0.00841,0.00281,0.00472,0.00642,0.00562,0.007
0.00757,0.00714,0.00746,0.03785,0.01138,0.55651,0.04585,0.53191,0.00742,0.07854,0.56011,0.00229,0.0079,0.00536,0.05757,0.11228,0.0089,0.00321,0.00513,0.00519,0.00585,0.00542
0.00523,0.00708,0.00558,0.03507,0.00641,0.78314,0.00448,0.72996,0.00871,0.03342,0.5642,0.00186,0.00423,0.00493,0.05636,0.09223,0.00603,0.00274,0.00401,0.00503,0.00431,0.0054
0.007,0.00876,0.00851,0.00493,0.01118,0.53831,0.04585,0.53937,0.00738,0.07833,0.42804,0.00221,0.00438,0.00593,0.05699,0.10102,0.00753,0.00292,0.00475,0.0063,0.00473,0.00665
0.00804,0.01074,0.01088,0.03382,0.00641,0.5642,0.00452,0.48082,0.00867,0.03361,0.54101,0.00184,0.00534,0.00601,0.05726,0.09135,0.00943,0.00237,0.00448,0.00804,0.00493,0.00808
0.0066,0.00852,0.00756,0.00749,0.01122,0.65085,0.04577,0.73199,0.00754,0.0777,0.54512,0.00227,0.00548,0.00581,0.0464,0.10621,0.0082,0.00307,0.0047,0.0058,0.00431,0.00584
0.00607,0.00736,0.00722,0.00542,0.00633,0.58764,0.0045,0.74602,0.00865,0.03357,0.48929,0.00223,0.00442,0.00499,0.04488,0.10411,0.00716,0.00251,0.00462,0.00505,0.00411,0.00523
0.00693,0.00828,0.0083,0.00603,0.01161,0.58259,0.04591,0.63056,0.00761,0.07811,0.45971,0.00188,0.00513,0.00569,0.0477,0.09198,0.00697,0.00288,0.00513,0.00714,0.00462,0.00685
0.00597,0.0073,0.00675,0.00796,0.0061,0.88549,0.00441,0.65461,0.00845,0.03379,0.55904,0.00198,0.00562,0.00614,0.04724,0.0995,0.00626,0.00303,0.0047,0.00652,0.00466,0.00644
0.00622,0.00716,0.00732,0.00781,0.01165,0.94058,0.0461,0.68825,0.00775,0.07872,0.55299,0.00262,0.00638,0.00616,0.04814,0.10391,0.00722,0.00297,0.00509,0.00581,0.00462,0.00577
0.00659,0.00826,0.00869,0.05878,0.00586,0.79172,0.00411,0.88142,0.00845,0.03355,0.6401,0.00235,0.0063,0.0063,0.05939,0.11561,0.00777,0.00325,0.00499,0.0064,0.00505,0.00595
0.00767,0.00951,0.00906,0.06314,0.01179,0.63039,0.04622,0.63203,0.00758,0.07807,0.46293,0.00239,0.00572,0.00652,0.05068,0.11276,0.00964,0.00348,0.00511,0.0073,0.00522,0.00661
0.00771,0.00875,0.00783,0.01362,0.00598,0.89338,0.00413,0.85707,0.00869,0.03412,0.45495,0.00215,0.00646,0.00671,0.04201,0.10422,0.00816,0.00294,0.00515,0.0079,0.00548,0.00656
0.0058,0.00734,0.00652,0.01436,0.01177,0.88424,0.04624,1.19361,0.00752,0.07727,0.60608,0.0017,0.00476,0.00542,0.04491,0.1244,0.00621,0.00254,0.00437,0.00593,0.00433,0.00583
0.00659,0.00736,0.00745,0.10864,0.00582,0.68274,0.00411,0.86407,0.00871,0.03486,0.53525,0.00565,0.00534,0.00597,0.04817,0.13204,0.00663,0.00504,0.00491,0.00624,0.00497,0.00612
0.00734,0.00871,0.00865,0.02228,0.01173,0.85004,0.04614,1.07929,0.00756,0.0761,0.53679,0.00909,0.00616,0.00636,0.05558,0.12801,0.008,0.00776,0.00532,0.00728,0.00509,0.00724
0.00726,0.00808,0.00869,0.0059,0.0059,1.13316,0.00417,0.77412,0.00859,0.03652,0.62177,0.01342,0.00489,0.00593,0.04898,0.11691,0.00834,0.00693,0.00534,0.00664,0.00497,0.00662
0.00638,0.00939,0.00879,0.04661,0.01173,0.92317,0.04616,0.89343,0.0075,0.07425,0.63813,0.00516,0.00618,0.00829,0.0523,0.13078,0.00906,0.00443,0.00482,0.00777,0.00517,0.0089
0.00808,0.00939,0.0091,0.10458,0.00596,1.02235,0.00413,0.98895,0.00855,0.0386,0.5972,0.00314,0.00599,0.00556,0.05879,0.10713,0.0083,0.00376,0.00536,0.00652,0.00534,0.00678
0.00824,0.00967,0.00836,0.07376,0.01163,0.97965,0.0461,0.71099,0.00759,0.07363,0.53812,0.00282,0.00628,0.00728,0.05412,0.1122,0.01039,0.00339,0.00599,0.00917,0.00575,0.00734
0.00713,0.00961,0.00771,0.0835,0.00598,1.01516,0.00421,0.9449,0.00847,0.03794,0.82297,0.00219,0.00585,0.00785,0.03927,0.10846,0.00873,0.00311,0.0048,0.00814,0.00429,0.00732
0.00552,0.01066,0.00728,0.10135,0.01165,0.91353,0.04612,1.07763,0.00785,0.07406,0.68407,0.00196,0.00579,0.0064,0.04861,0.11295,0.00711,0.00303,0.00454,0.00713,0.0044,0.00699
0.00823,0.01252,0.01005,0.03914,0.01241,0.82198,0.0463,0.62191,0.00841,0.08202,0.62901,0.00241,0.0055,0.00777,0.05045,0.11661,0.00876,0.00288,0.00561,0.00937,0.00475,0.00787
0.00851,0.01153,0.01029,0.01732,0.00514,0.83678,0.00409,0.70051,0.00779,0.03002,0.68676,0.00209,0.00667,0.00767,0.04695,0.10202,0.01045,0.00282,0.00501,0.00957,0.00491,0.00843
0.00797,0.00955,0.01115,0.03943,0.01237,0.75796,0.0462,0.95949,0.00834,0.08217,0.61048,0.00213,0.00554,0.005,0.04232,0.10766,0.00992,0.00276,0.00487,0.00642,0.00542,0.00566
0.00836,0.01086,0.01362,0.03385,0.00534,0.52855,0.00409,0.60125,0.00771,0.03024,0.45817,0.00205,0.0062,0.007,0.03969,0.10828,0.01076,0.00315,0.00483,0.00761,0.00523,0.00687
0.00799,0.00838,0.01018,0.0177,0.0122,0.55785,0.04626,0.47338,0.00835,0.08158,0.61105,0.00207,0.00609,0.008,0.051,0.09533,0.00912,0.00288,0.0054,0.00925,0.00573,0.0081
0.00675,0.00765,0.0099,0.013,0.00545,0.6822,0.00407,0.81717,0.00781,0.02971,0.6009,0.00215,0.00488,0.00654,0.05106,0.09612,0.00695,0.00292,0.00464,0.00627,0.00474,0.00658
0.00831,0.0082,0.01047,0.00618,0.01214,0.75284,0.04618,0.75706,0.00816,0.08238,0.72737,0.00204,0.00825,0.00654,0.04928,0.09152,0.00935,0.00227,0.00487,0.00609,0.00579,0.00574
0.00744,0.0089,0.00818,0.02529,0.00549,0.45979,0.00407,0.52044,0.00791,0.02957,0.40503,0.00221,0.00517,0.00718,0.0357,0.08942,0.00775,0.00293,0.00509,0.00878,0.00525,0.00782
0.00953,0.01029,0.01433,0.04093,0.01204,0.58871,0.04622,0.65027,0.00802,0.08139,0.56468,0.00252,0.00706,0.00898,0.03806,0.10594,0.01222,0.00299,0.00616,0.00748,0.00612,0.0075
0.00613,0.00703,0.00841,0.02102,0.00616,0.74277,0.00409,0.95533,0.0082,0.03106,0.60856,0.00149,0.00488,0.00513,0.0408,0.09728,0.00817,0.00231,0.00435,0.0056,0.00519,0.00597
0.00706,0.0082,0.01064,0.00895,0.01177,0.5935,0.04622,0.65804,0.00789,0.08088,0.51799,0.0018,0.00505,0.00569,0.03967,0.08873,0.00754,0.00254,0.00493,0.00644,0.00462,0.00607
0.00685,0.00943,0.0093,0.02972,0.00578,0.53719,0.00409,0.5191,0.00818,0.03223,0.47603,0.00196,0.00519,0.00771,0.04195,0.08621,0.00851,0.0035,0.00503,0.00984,0.00546,0.00888
0.00701,0.00863,0.00961,0.00648,0.01187,0.50277,0.04618,0.47199,0.00773,0.0794,0.39091,0.00184,0.00585,0.00582,0.05024,0.08245,0.00736,0.00276,0.00519,0.00629,0.00503,0.00648
0.0072,0.00627,0.00717,0.0045,0.0062,0.57309,0.00429,0.68446,0.00849,0.03406,0.43623,0.00178,0.0039,0.00482,0.04258,0.10458,0.00578,0.00233,0.0045,0.00523,0.00437,0.00482
0.00535,0.00683,0.00665,0.00452,0.0114,0.56983,0.04604,0.65444,0.00761,0.07825,0.4156,0.00194,0.00427,0.00472,0.04426,0.09784,0.00577,0.00233,0.0045,0.00591,0.00432,0.00495
0.00638,0.00751,0.00785,0.00712,0.00625,0.47037,0.00425,0.5163,0.00847,0.03285,0.41114,0.00186,0.00442,0.00571,0.04309,0.10683,0.00724,0.0025,0.0047,0.00667,0.00468,0.00649
0.00574,0.00693,0.00656,0.00681,0.01132,0.72539,0.04598,0.78216,0.00756,0.0785,0.6519,0.00172,0.00475,0.00544,0.04393,0.09829,0.00714,0.00272,0.00435,0.00576,0.00452,0.00548
0.00587,0.00595,0.00572,0.00415,0.00621,0.55716,0.00429,0.71248,0.00841,0.03316,0.47037,0.00237,0.00497,0.00536,0.04811,0.12515,0.00617,0.00274,0.00528,0.00495,0.00466,0.00478
0.00685,0.00675,0.00841,0.00434,0.01142,0.4833,0.04593,0.47254,0.00756,0.07881,0.43684,0.00588,0.00468,0.00567,0.04341,0.09907,0.00714,0.00784,0.0046,0.00487,0.00491,0.00526
0.00656,0.00685,0.00793,0.0054,0.00621,0.60333,0.00441,0.64792,0.00857,0.03295,0.48972,0.00239,0.00528,0.00519,0.04282,0.10453,0.0072,0.00416,0.00501,0.00583,0.00417,0.00579
0.00542,0.00619,0.00617,0.0031,0.01136,0.63698,0.04589,0.69599,0.00744,0.07883,0.52158,0.00192,0.00401,0.00464,0.05434,0.12046,0.0055,0.0027,0.00431,0.00474,0.00389,0.00528
0.00694,0.0082,0.008,0.00405,0.00643,0.59374,0.00448,0.58597,0.00876,0.03353,0.40969,0.00223,0.00466,0.00503,0.07505,0.10809,0.00775,0.00303,0.00507,0.0062,0.00503,0.00575
0.0066,0.00775,0.00687,0.00784,0.01118,0.67387,0.04585,0.72702,0.00744,0.07837,0.45373,0.00225,0.00438,0.00538,0.05058,0.12644,0.00656,0.0028,0.00464,0.00714,0.00427,0.00675
0.00607,0.00687,0.00673,0.02052,0.00641,0.76011,0.00445,0.96035,0.00869,0.0332,0.55212,0.00196,0.00462,0.0055,0.04383,0.11521,0.00677,0.0027,0.00479,0.00501,0.00475,0.00523
0.00601,0.00632,0.00716,0.01399,0.01128,0.64418,0.04587,0.81451,0.0075,0.07807,0.54981,0.00213,0.00522,0.00566,0.04124,0.11144,0.00656,0.00252,0.00411,0.00577,0.00431,0.00593
0.00607,0.00845,0.00783,0.01011,0.00635,0.44606,0.00452,0.46245,0.00859,0.03363,0.42613,0.00159,0.00458,0.0061,0.02627,0.10948,0.00628,0.00288,0.00417,0.0089,0.00421,0.0071
0.0071,0.00963,0.0106,0.01072,0.01132,0.43066,0.04585,0.45625,0.00756,0.0779,0.32154,0.00196,0.00497,0.00691,0.02601,0.11281,0.00851,0.00237,0.00489,0.00877,0.00501,0.00763
0.00581,0.00611,0.00576,0.00334,0.00629,0.65463,0.00445,0.87128,0.00845,0.03347,0.49465,0.00172,0.00431,0.00439,0.0238,0.11608,0.00601,0.00211,0.00407,0.00486,0.00421,0.00439
0.00476,0.00542,0.00554,0.0036,0.01161,0.73034,0.04604,1.04467,0.00777,0.07925,0.56708,0.00159,0.00415,0.00405,0.03733,0.1007,0.00519,0.00225,0.00425,0.00452,0.0046,0.00456
0.00632,0.00866,0.00798,0.00735,0.00592,0.41463,0.00417,0.55167,0.00841,0.03334,0.36824,0.00174,0.00481,0.006,0.03392,0.11693,0.00778,0.00248,0.0047,0.00774,0.00474,0.00694
0.00695,0.00853,0.00886,0.01046,0.01171,0.6721,0.0462,0.66778,0.00765,0.07887,0.45089,0.00248,0.00554,0.00667,0.03389,0.13906,0.00849,0.0036,0.00491,0.0083,0.00491,0.00775
0.00568,0.00593,0.00533,0.00369,0.00594,0.68233,0.00407,0.92836,0.00857,0.03345,0.52565,0.00239,0.00405,0.00486,0.04132,0.11894,0.00615,0.00237,0.00427,0.00443,0.00395,0.00486
0.00661,0.00685,0.0064,0.02272,0.01177,0.55848,0.04632,0.80771,0.00752,0.07809,0.45901,0.00211,0.00507,0.00534,0.03561,0.10795,0.00679,0.00243,0.00456,0.00655,0.00466,0.0052
0.0065,0.00915,0.00741,0.01137,0.00594,0.49396,0.00406,0.538,0.00873,0.0342,0.3624,0.00186,0.0054,0.00638,0.03896,0.0973,0.00749,0.00274,0.00448,0.00779,0.00511,0.00759
0.00548,0.00693,0.00632,0.00653,0.01173,0.60829,0.0462,0.77365,0.00742,0.07665,0.43987,0.00194,0.00485,0.00534,0.03467,0.10955,0.00642,0.0027,0.00444,0.00658,0.00483,0.00617
0.00485,0.00613,0.00632,0.00384,0.00584,0.65172,0.00415,0.93442,0.00874,0.03589,0.47133,0.00174,0.00495,0.0048,0.02767,0.09892,0.00574,0.00233,0.00417,0.00523,0.00446,0.00488
0.00591,0.00704,0.00716,0.00989,0.01179,0.53834,0.04616,0.56786,0.0074,0.07505,0.43287,0.00205,0.00483,0.0054,0.02669,0.10617,0.00638,0.00272,0.00446,0.00671,0.00464,0.00651
0.0054,0.00837,0.00724,0.01023,0.006,0.57039,0.00417,0.47877,0.00857,0.03745,0.5218,0.00147,0.00493,0.00564,0.03199,0.12042,0.00726,0.00264,0.00454,0.00792,0.00454,0.00747
0.00673,0.00873,0.00792,0.00393,0.01161,0.71697,0.04608,0.96797,0.00769,0.07455,0.57856,0.0018,0.00489,0.00443,0.03584,0.14063,0.00748,0.00256,0.00462,0.00533,0.00462,0.00558
0.00734,0.00933,0.00976,0.00395,0.00596,0.67499,0.00417,0.76644,0.00837,0.03806,0.51781,0.00184,0.00581,0.00683,0.03103,0.13658,0.01058,0.00282,0.00433,0.00597,0.0054,0.0064
0.00712,0.00871,0.00807,0.01378,0.01161,0.49388,0.04618,0.48839,0.00791,0.07373,0.46906,0.00223,0.00564,0.00769,0.02399,0.11013,0.00879,0.00292,0.00534,0.01015,0.00536,0.00827
0.00681,0.00806,0.00808,0.01048,0.00618,0.59583,0.00415,0.61517,0.0083,0.03745,0.51492,0.00186,0.00454,0.00558,0.02552,0.1015,0.00756,0.00301,0.0048,0.00701,0.00439,0.00644
0.00658,0.00646,0.00662,0.00438,0.00759,0.86206,0.01938,0.81478,0.00785,0.04751,0.71929,0.0019,0.00403,0.00378,0.03858,0.09744,0.00593,0.00258,0.00476,0.00474,0.00413,0.00486
0.00673,0.00773,0.00788,0.00618,0.0124,0.8245,0.04619,0.87401,0.00834,0.08306,0.70857,0.00182,0.00462,0.00434,0.0432,0.12669,0.00677,0.00274,0.0047,0.00618,0.00538,0.00556
0.00874,0.00955,0.01162,0.0165,0.0053,0.56017,0.00413,0.59331,0.00769,0.02891,0.44834,0.00252,0.00548,0.00778,0.03563,0.12161,0.00884,0.00251,0.0061,0.00743,0.00546,0.00827
0.01045,0.0124,0.01223,0.01462,0.01224,0.51063,0.0462,0.47561,0.00835,0.08238,0.5114,0.00286,0.00724,0.00877,0.0396,0.13426,0.01219,0.0036,0.00636,0.00921,0.00659,0.00912
0.00736,0.00655,0.00649,0.0064,0.00545,0.74186,0.00406,0.75191,0.00783,0.02997,0.73645,0.00202,0.00599,0.00654,0.04947,0.11134,0.00635,0.00266,0.00499,0.00594,0.00605,0.00556
0.00708,0.0081,0.00937,0.00679,0.01216,0.66026,0.04622,0.47098,0.00824,0.08217,0.7215,0.00217,0.00534,0.00534,0.03314,0.11979,0.00634,0.00264,0.0044,0.00587,0.00458,0.00552
0.01064,0.01222,0.01752,0.01244,0.00545,0.40416,0.00409,0.39291,0.00779,0.02942,0.385,0.00196,0.00573,0.00812,0.03038,0.11496,0.01107,0.00262,0.00507,0.00853,0.0055,0.00763
0.01008,0.00918,0.01697,0.00631,0.01206,0.41214,0.04622,0.38938,0.00812,0.0818,0.36151,0.00211,0.00503,0.00574,0.02881,0.09731,0.01014,0.00254,0.00456,0.00554,0.00513,0.00584
0.00563,0.00539,0.00607,0.00525,0.00575,0.68373,0.00396,0.76937,0.00795,0.03055,0.56569,0.0018,0.00384,0.00491,0.03883,0.10558,0.00611,0.00258,0.00481,0.00456,0.00407,0.0047
0.00698,0.00839,0.00769,0.00386,0.0121,0.52688,0.04628,0.56217,0.00806,0.08125,0.4462,0.00192,0.00509,0.00552,0.04726,0.10835,0.00708,0.00217,0.00454,0.00493,0.0047,0.00583
0.00701,0.00818,0.00853,0.04759,0.00582,0.45339,0.00409,0.48666,0.00818,0.03117,0.37361,0.00194,0.00517,0.00618,0.03818,0.11966,0.00787,0.00272,0.00407,0.00769,0.0045,0.00741
0.00593,0.00726,0.00763,0.00544,0.01179,0.51007,0.0462,0.5615,0.00781,0.0803,0.45301,0.00151,0.00487,0.00454,0.02609,0.12287,0.00666,0.00233,0.00413,0.00544,0.00452,0.00517
0.00591,0.00617,0.00695,0.0036,0.00619,0.76449,0.00427,0.97485,0.00845,0.03344,0.60182,0.0017,0.00515,0.00472,0.0213,0.09563,0.0066,0.00256,0.00507,0.00525,0.00468,0.00534
0.00652,0.00687,0.00788,0.00452,0.01144,0.60765,0.046,0.81862,0.00756,0.07774,0.48139,0.00176,0.00439,0.00517,0.02248,0.10843,0.00613,0.0027,0.00454,0.00499,0.00401,0.0056
0.00747,0.00722,0.00865,0.02702,0.00625,0.619,0.00429,0.6756,0.00843,0.03371,0.43758,0.00307,0.0052,0.0064,0.02176,0.09861,0.00718,0.00405,0.00475,0.00636,0.0052,0.00724
0.00597,0.00665,0.00711,0.01591,0.01126,0.61396,0.046,0.67058,0.00752,0.07843,0.49414,0.00327,0.00542,0.0064,0.02336,0.10939,0.00687,0.0038,0.00452,0.00607,0.00466,0.00652
0.00605,0.00693,0.00722,0.00862,0.00623,0.62653,0.00429,0.74195,0.00849,0.03281,0.49889,0.00241,0.00491,0.0055,0.02524,0.10492,0.00663,0.00325,0.00495,0.00552,0.00483,0.00554
0.00673,0.00835,0.00763,0.03107,0.0114,0.70458,0.04597,0.69493,0.00752,0.07876,0.49746,0.0018,0.00491,0.00608,0.03083,0.11032,0.00732,0.00303,0.00491,0.00599,0.00511,0.00567
0.00609,0.00785,0.00753,0.00528,0.00616,0.53851,0.00437,0.59892,0.00855,0.03281,0.41722,0.00194,0.00476,0.00558,0.03008,0.11779,0.00693,0.00317,0.0046,0.00646,0.00456,0.00564
0.0071,0.0075,0.00779,0.00794,0.01134,0.48552,0.04585,0.59445,0.00742,0.07889,0.43322,0.00184,0.00462,0.00521,0.02871,0.11523,0.00683,0.0026,0.00487,0.00587,0.0046,0.00616
0.00673,0.00796,0.00685,0.00476,0.00633,0.54247,0.00448,0.57802,0.00871,0.0333,0.46881,0.00192,0.00468,0.00534,0.02988,0.10132,0.00749,0.00217,0.00478,0.00571,0.00456,0.00583
0.00638,0.00654,0.00708,0.00813,0.01136,0.57262,0.04581,0.73357,0.00734,0.07825,0.54408,0.002,0.00425,0.00425,0.04221,0.13393,0.00703,0.00194,0.00423,0.00429,0.00425,0.00491
0.00667,0.00708,0.00724,0.00554,0.00639,0.68424,0.00452,0.87387,0.00867,0.03341,0.51675,0.00186,0.00446,0.00475,0.20592,0.11647,0.00667,0.00264,0.00483,0.00513,0.00468,0.00567
0.00706,0.00779,0.00748,0.00634,0.01124,0.74923,0.04583,0.62774,0.00752,0.0785,0.51161,0.00272,0.0052,0.00645,0.6298,0.10345,0.00687,0.00317,0.00438,0.00636,0.00493,0.00579
0.00642,0.00863,0.00787,0.03423,0.00639,0.76306,0.0045,0.77296,0.00857,0.03351,0.6792,0.00221,0.00569,0.0056,0.66672,0.1127,0.00761,0.00344,0.00483,0.00757,0.00544,0.00747
0.00632,0.00838,0.00685,0.02975,0.0112,0.96915,0.04583,1.03747,0.00759,0.0778,0.89269,0.00241,0.00591,0.00585,0.45269,0.11364,0.00853,0.00307,0.0046,0.00548,0.00544,0.0063
0.00779,0.013,0.00923,0.03633,0.00641,0.78539,0.00446,0.86714,0.00855,0.03367,0.69811,0.00211,0.00579,0.00665,0.13805,0.11659,0.00935,0.00381,0.00429,0.00827,0.00511,0.00788
0.01166,0.01407,0.02244,0.01945,0.0115,0.48929,0.04593,0.57417,0.00767,0.07827,0.41754,0.00223,0.00726,0.00814,0.03713,0.11154,0.01469,0.00366,0.00563,0.00937,0.00667,0.00914
0.00918,0.01405,0.01534,0.00715,0.00604,0.71242,0.00431,0.93854,0.00843,0.03386,0.60052,0.00227,0.0055,0.00675,0.06144,0.12713,0.0103,0.00274,0.00526,0.00826,0.00542,0.00795
0.00703,0.00819,0.01099,0.0038,0.01169,1.12471,0.04616,1.23365,0.00781,0.07915,0.97609,0.00206,0.00437,0.00497,0.06125,0.11443,0.00885,0.0026,0.0044,0.00513,0.00407,0.00507
0.00888,0.01134,0.01645,0.01536,0.00594,0.74515,0.00411,0.84907,0.00851,0.03353,0.65185,0.00202,0.00587,0.00706,0.05201,0.1245,0.0101,0.00313,0.00472,0.00769,0.00511,0.0081
0.01039,0.01604,0.0146,0.0412,0.01177,0.61239,0.0463,0.73963,0.00763,0.07762,0.53297,0.00268,0.00605,0.00898,0.04721,0.11311,0.01244,0.00313,0.00581,0.01212,0.00562,0.01011
0.00922,0.01282,0.0172,0.01983,0.00598,1.16141,0.00406,1.15816,0.00859,0.03457,1.14688,0.00233,0.0055,0.00652,0.03732,0.12534,0.0126,0.0026,0.0056,0.00856,0.00513,0.00742
0.00609,0.00922,0.00853,0.0091,0.01173,0.93344,0.0462,1.12763,0.00744,0.07675,0.65048,0.00194,0.00571,0.00648,0.04681,0.38411,0.00934,0.00286,0.0046,0.00677,0.00493,0.00687
0.01532,0.02594,0.02881,0.03853,0.00586,0.75176,0.00415,0.70783,0.00876,0.03587,0.76983,0.00254,0.00743,0.01013,0.04203,0.23962,0.01914,0.00301,0.00671,0.01294,0.00645,0.01179
0.00882,0.01271,0.01353,0.01949,0.01179,0.9217,0.04616,1.05753,0.0075,0.07505,0.76787,0.0026,0.00582,0.00709,0.03393,0.18309,0.01078,0.00286,0.00671,0.00864,0.00546,0.00819
0.01125,0.01327,0.01592,0.00818,0.00588,0.91621,0.00413,1.13138,0.00857,0.03724,0.75939,0.00243,0.00595,0.00753,0.0347,0.09352,0.01117,0.0029,0.00538,0.00728,0.00642,0.00695
0.0086,0.01206,0.01208,0.02138,0.01173,0.89843,0.04618,0.86744,0.00773,0.07464,0.82728,0.00225,0.00585,0.00914,0.03378,0.09731,0.00955,0.00321,0.00542,0.01037,0.00505,0.00919
0.00888,0.01143,0.01407,0.02651,0.00596,0.70599,0.00413,0.61884,0.00835,0.03761,0.71447,0.00206,0.00816,0.00906,0.03884,0.08933,0.0118,0.00305,0.00575,0.01022,0.00708,0.00873
0.00863,0.01055,0.01167,0.01189,0.01161,0.59497,0.04612,0.65459,0.00793,0.07418,0.47038,0.00282,0.00693,0.00707,0.03513,0.1032,0.01149,0.00356,0.00548,0.00893,0.0066,0.0083
0.00927,0.00916,0.01358,0.0075,0.00619,0.60808,0.00419,0.71579,0.00826,0.03741,0.53639,0.00215,0.00548,0.00605,0.02765,0.08751,0.00864,0.0028,0.00489,0.00681,0.00527,0.00609
0.00623,0.0075,0.00762,0.0073,0.01142,0.7855,0.0461,0.9206,0.00781,0.07421,0.68454,0.00174,0.00444,0.00511,0.02525,0.1097,0.00668,0.00243,0.00448,0.00626,0.00448,0.0055
0.00767,0.00863,0.00894,0.00925,0.01244,0.6222,0.04622,0.61738,0.00836,0.08194,0.58464,0.00213,0.00503,0.00681,0.02774,0.12068,0.00802,0.00274,0.00485,0.00761,0.00474,0.00692
0.00783,0.01203,0.01127,0.01924,0.00528,0.5793,0.00415,0.52408,0.00783,0.02998,0.61378,0.00229,0.00651,0.00802,0.02642,0.12781,0.00976,0.00297,0.00542,0.00986,0.00536,0.00898
0.00824,0.00877,0.0128,0.01256,0.01226,0.52463,0.0462,0.56671,0.00832,0.08229,0.49323,0.00196,0.00593,0.00623,0.02589,0.10158,0.00904,0.00249,0.00495,0.0068,0.00562,0.00679
0.00746,0.00724,0.00876,0.00758,0.00538,0.57315,0.00406,0.81605,0.00773,0.03002,0.41227,0.00139,0.00482,0.00531,0.02663,0.10289,0.00713,0.00209,0.00425,0.00593,0.00484,0.00529
0.00613,0.00681,0.0066,0.00382,0.01224,0.65524,0.04626,0.85044,0.00832,0.08205,0.52598,0.00295,0.00427,0.00489,0.02826,0.12946,0.00624,0.00372,0.00446,0.00548,0.00433,0.00507
0.00525,0.00714,0.00691,0.00434,0.00539,1.14825,0.00407,1.01184,0.00775,0.02932,0.85702,0.00952,0.00483,0.00509,0.02673,0.11572,0.00616,0.00762,0.00472,0.00651,0.00417,0.00665
0.00667,0.0088,0.00853,0.01007,0.01216,0.814,0.0462,1.02813,0.0082,0.0823,0.63509,0.01004,0.00569,0.00712,0.02288,0.10624,0.00913,0.00609,0.00513,0.00781,0.0053,0.00742
0.0096,0.0106,0.01404,0.03719,0.00557,0.68274,0.004,0.84205,0.00789,0.02981,0.65251,0.00457,0.00595,0.00687,0.01729,0.11595,0.01131,0.00464,0.00493,0.008,0.00519,0.00812
0.00723,0.00865,0.00968,0.01482,0.01208,0.94424,0.04626,1.52987,0.00804,0.08203,1.12674,0.01046,0.00642,0.00667,0.01808,0.11306,0.00942,0.01046,0.00519,0.00679,0.0056,0.00658
0.00804,0.0092,0.01098,0.00563,0.00606,0.82696,0.00411,0.90309,0.00808,0.03036,1.889,0.01186,0.00533,0.00699,0.02238,0.1146,0.01006,0.01164,0.00663,0.00632,0.00493,0.00679
0.01058,0.00978,0.01071,0.0297,0.01175,0.67429,0.04618,0.91292,0.00797,0.08145,0.70035,0.00629,0.01081,0.0091,0.01993,0.10124,0.01238,0.00719,0.02677,0.00978,0.00728,0.0087
0.01553,0.01277,0.00963,0.0623,0.0061,7.20634,0.00423,1.87626,0.00841,0.03198,1.10373,0.00263,0.01326,0.0106,0.02523,0.13553,0.01545,0.00337,0.02982,0.01486,0.00628,0.0117
0.0081,0.00891,0.00941,0.02084,0.01157,0.8705,0.04606,1.09741,0.00759,0.07903,0.73628,0.00299,0.00589,0.00645,0.02253,0.12651,0.00827,0.00385,0.01002,0.00642,0.00456,0.00727
0.00896,0.01111,0.01154,0.3344,0.00621,0.77574,0.00433,0.88318,0.00845,0.03416,0.64398,0.00514,0.00808,0.00896,0.02112,0.14425,0.01084,0.00446,0.01088,0.01441,0.00647,0.02822
0.01138,0.01459,0.01051,0.01186,0.01134,0.63351,0.04597,0.63672,0.00759,0.07845,0.58938,0.00466,0.00798,0.00871,0.02446,0.12331,0.01194,0.00692,0.00516,0.00739,0.00562,0.00998
0.01116,0.01542,0.00942,0.01301,0.00621,0.63737,0.00431,0.75173,0.00849,0.03291,0.74232,0.00304,0.00755,0.00912,0.02913,0.11799,0.0093,0.0041,0.00653,0.00859,0.00562,0.01338
0.00766,0.00763,0.00869,0.00753,0.0114,0.60482,0.04598,0.6543,0.00756,0.07881,0.80174,0.00151,0.00517,0.00558,0.03049,0.11871,0.00687,0.00298,0.00488,0.00513,0.00525,0.00682
0.00681,0.00845,0.00838,0.00396,0.00617,0.60157,0.00435,0.71565,0.00847,0.03281,0.82569,0.00215,0.0054,0.00702,0.03656,0.13732,0.00824,0.00352,0.00573,0.00679,0.00511,0.00695
0.0104,0.01009,0.00939,0.00382,0.01138,0.67239,0.04589,0.82579,0.0075,0.07891,0.90122,0.0019,0.0064,0.00572,0.0372,0.12705,0.00855,0.00301,0.00796,0.00706,0.00472,0.00753
0.01166,0.01303,0.00924,0.00442,0.00629,0.59666,0.00448,0.86335,0.00863,0.03303,0.83412,0.0025,0.00677,0.00712,0.03523,0.11171,0.00951,0.00303,0.00982,0.00849,0.0046,0.00982
0.01098,0.01038,0.00904,0.00399,0.01138,0.6231,0.04585,0.67102,0.00742,0.07854,0.67165,0.00223,0.00812,0.00843,0.02585,0.11754,0.00926,0.00305,0.01258,0.00886,0.0052,0.00977
0.01069,0.00979,0.00793,0.00423,0.00641,0.79088,0.00448,1.05598,0.00871,0.03342,0.96409,0.00239,0.00925,0.00853,0.01997,0.10183,0.00922,0.00383,0.01512,0.00828,0.00503,0.01027
0.00899,0.00992,0.00767,0.00409,0.01118,0.5657,0.04585,0.65132,0.00738,0.07833,0.70696,0.00684,0.00879,0.00691,0.02312,0.08864,0.00935,0.00425,0.01231,0.00882,0.00476,0.00996
0.01224,0.01211,0.01367,0.00593,0.00641,0.81525,0.00452,0.84313,0.00867,0.03361,0.66335,0.01431,0.00726,0.00677,0.02797,0.10156,0.01092,0.00985,0.00924,0.00918,0.00528,0.00898
0.00915,0.00957,0.00745,0.0079,0.01122,0.8994,0.04577,1.1129,0.00754,0.0777,0.68085,0.00282,0.00531,0.00562,0.03615,0.10707,0.00899,0.00357,0.00484,0.00541,0.00433,0.00685
0.00642,0.00805,0.01066,0.00959,0.00633,0.80535,0.0045,1.01081,0.00865,0.03357,0.61117,0.00336,0.00464,0.0065,0.05105,0.11683,0.00754,0.00317,0.00546,0.00579,0.00446,0.00636
0.00722,0.01109,0.01203,0.01697,0.01161,0.44331,0.04591,0.50416,0.00761,0.07811,0.40699,0.00217,0.00839,0.01015,0.05356,0.10222,0.01068,0.00331,0.007,0.01071,0.00636,0.01068
0.00677,0.00955,0.01116,0.01115,0.0061,0.50768,0.00441,0.57921,0.00845,0.03379,0.45121,0.00299,0.00627,0.00803,0.04069,0.12975,0.00949,0.0035,0.00579,0.00879,0.00482,0.0075
0.00661,0.00693,0.00953,0.00998,0.01165,0.8123,0.0461,0.9389,0.00775,0.07872,0.67752,0.00212,0.00523,0.00537,0.03861,0.12518,0.00703,0.00303,0.00515,0.0048,0.00456,0.00568
0.00624,0.00931,0.00818,0.01312,0.00586,0.64266,0.00411,0.56301,0.00845,0.03355,0.50757,0.00202,0.00513,0.00616,0.02304,0.09153,0.00835,0.0026,0.00522,0.00749,0.00442,0.00726
0.00911,0.01033,0.01095,0.01409,0.01179,0.75862,0.04622,0.70629,0.00758,0.07807,0.66308,0.0027,0.00733,0.00829,0.0261,0.09506,0.01039,0.00278,0.00575,0.00804,0.00591,0.00822
0.00853,0.01029,0.00975,0.01347,0.00598,0.72388,0.00413,0.71796,0.00869,0.03412,0.64712,0.00217,0.00568,0.00644,0.02275,0.11024,0.0092,0.00262,0.00511,0.00568,0.00548,0.00623
0.00931,0.01383,0.01299,0.01301,0.01177,0.5918,0.04624,0.57093,0.00752,0.07727,0.56318,0.00217,0.00677,0.00685,0.02571,0.0999,0.0109,0.00278,0.00569,0.00786,0.0055,0.0089
0.00945,0.0112,0.01249,0.00766,0.00582,0.54457,0.00411,0.68998,0.00871,0.03486,0.49278,0.00239,0.00605,0.00714,0.02751,0.12527,0.01065,0.0026,0.00575,0.00777,0.0056,0.0084
0.00723,0.00813,0.00801,0.00394,0.01173,0.66091,0.04614,0.81137,0.00756,0.0761,0.54086,0.00254,0.0054,0.00749,0.02335,0.13802,0.00832,0.00239,0.00444,0.00544,0.00482,0.00566
0.00671,0.00697,0.00754,0.00686,0.0059,0.761,0.00417,1.11508,0.00859,0.03652,0.68877,0.00188,0.00444,0.00552,0.02368,0.12507,0.00681,0.00223,0.00472,0.00673,0.00399,0.00669
0.00576,0.0072,0.00734,0.01339,0.01173,0.7316,0.04616,0.64048,0.0075,0.07425,0.59709,0.00182,0.00468,0.00562,0.01993,0.10931,0.00622,0.0025,0.00487,0.00728,0.00434,0.00628
0.00665,0.00816,0.00816,0.01243,0.00596,0.98815,0.00413,1.01822,0.00855,0.0386,1.33587,0.01428,0.00554,0.00712,0.02357,0.09367,0.00716,0.0104,0.00515,0.00728,0.00487,0.0081
0.00716,0.00722,0.00789,0.00795,0.01163,0.76816,0.0461,0.8649,0.00759,0.07363,0.74667,0.00235,0.00456,0.00572,0.02852,0.10507,0.0065,0.00309,0.00733,0.00683,0.00503,0.00664
0.01238,0.01201,0.01019,0.00568,0.00598,0.71365,0.00421,0.80946,0.00847,0.03794,0.79117,0.00442,0.00802,0.00739,0.03416,0.10923,0.01031,0.00346,0.01472,0.00902,0.00569,0.0089
0.00961,0.01202,0.00828,0.03829,0.01165,0.83157,0.04612,1.25297,0.00785,0.07406,0.68203,0.00352,0.00769,0.00863,0.02757,0.09164,0.0093,0.0038,0.01073,0.009,0.00568,0.0108
0.00869,0.01008,0.00777,0.00902,0.01241,1.36203,0.0463,1.25473,0.00841,0.08202,1.01032,0.00907,0.00668,0.0072,0.03019,0.10059,0.00904,0.0062,0.00658,0.00783,0.00538,0.00809
0.0082,0.00916,0.01039,0.01385,0.00514,0.91789,0.00409,0.98927,0.00779,0.03002,0.74926,0.00527,0.00585,0.00716,0.02219,0.1142,0.00961,0.00509,0.00613,0.00947,0.00651,0.00838
0.01021,0.01193,0.01088,0.04845,0.01237,0.62535,0.0462,0.73394,0.00834,0.08217,0.79168,0.00241,0.00874,0.01152,0.02329,0.1111,0.01152,0.0036,0.01003,0.0116,0.00843,0.01175
0.00961,0.01219,0.01182,0.04779,0.00534,0.75603,0.00409,0.85243,0.00771,0.03024,0.72119,0.00208,0.00758,0.00944,0.02553,0.14717,0.00977,0.00339,0.0074,0.00895,0.00568,0.0102
0.00953,0.01,0.01016,0.00816,0.0122,0.72894,0.04626,1.03795,0.00835,0.08158,0.61826,0.00246,0.0058,0.00724,0.02634,0.10361,0.00869,0.00313,0.00796,0.00762,0.00511,0.00836
0.00865,0.01088,0.01344,0.01107,0.00545,0.48838,0.00407,0.58539,0.00781,0.02971,0.48187,0.00223,0.00618,0.00693,0.02189,0.11675,0.00967,0.0029,0.00871,0.00929,0.00509,0.00896
0.00701,0.00848,0.00872,0.00852,0.01214,0.58177,0.04618,0.5373,0.00816,0.08238,0.52002,0.00295,0.00616,0.00833,0.02407,0.13585,0.00844,0.00422,0.00592,0.00969,0.00483,0.00892
0.00628,0.00627,0.00625,0.00324,0.00549,0.71664,0.00407,0.7582,0.00791,0.02957,0.72184,0.00241,0.00575,0.00521,0.01981,0.12093,0.00756,0.00227,0.00587,0.00445,0.00429,0.00541
0.0064,0.00773,0.00896,0.00368,0.01204,0.93507,0.04622,1.01213,0.00802,0.08139,0.73268,0.00252,0.00515,0.00554,0.01947,0.08752,0.00669,0.00313,0.00443,0.00563,0.0045,0.0061
0.00831,0.00953,0.01107,0.00942,0.00616,0.64657,0.00409,0.54967,0.0082,0.03106,0.63321,0.00245,0.00649,0.00737,0.02484,0.10261,0.009,0.00313,0.00477,0.00737,0.00497,0.00757
0.00824,0.00889,0.00924,0.01178,0.01177,0.5332,0.04622,0.61187,0.00789,0.08088,0.5013,0.00274,0.00607,0.00568,0.02888,0.11895,0.00875,0.00317,0.00513,0.00791,0.00556,0.00712
0.00763,0.01211,0.00963,0.00444,0.00578,0.7321,0.00409,0.85977,0.00818,0.03223,0.60405,0.00204,0.00626,0.00665,0.0248,0.09957,0.00935,0.0027,0.00468,0.00605,0.0053,0.00695
0.0064,0.00645,0.00748,0.00569,0.01187,0.49192,0.04618,0.54674,0.00773,0.0794,0.49464,0.00184,0.00439,0.00517,0.02714,0.12377,0.00619,0.0028,0.00456,0.00534,0.00454,0.00564
0.00638,0.00792,0.00841,0.01007,0.0062,0.45391,0.00429,0.40359,0.00849,0.03406,0.44474,0.00215,0.00538,0.00722,0.02247,0.11704,0.00784,0.00278,0.00487,0.00765,0.00464,0.00741
0.00652,0.00732,0.00713,0.00426,0.0114,0.60065,0.04604,0.62536,0.00761,0.07825,0.51899,0.00192,0.00517,0.00464,0.02786,0.12175,0.00642,0.00251,0.00433,0.00535,0.00433,0.00498
0.00583,0.00609,0.00665,0.00864,0.00625,0.68967,0.00425,0.85282,0.00847,0.03285,0.54082,0.00166,0.00466,0.00501,0.02255,0.17586,0.00646,0.00196,0.0044,0.0048,0.0044,0.00489
0.00675,0.00761,0.00788,0.00793,0.01132,0.52037,0.04598,0.44514,0.00756,0.0785,0.50244,0.00188,0.00474,0.00579,0.01975,1.8031,0.00755,0.00254,0.00475,0.00647,0.0038,0.00645
0.00644,0.00964,0.00865,0.01105,0.00621,0.57742,0.00429,0.47489,0.00841,0.03316,0.51811,0.00182,0.00597,0.00782,0.01873,0.32821,0.00902,0.00325,0.00433,0.00882,0.00464,0.00829
0.00593,0.00664,0.00935,0.00684,0.01142,0.51343,0.04593,0.54257,0.00756,0.07881,0.46093,0.00176,0.00509,0.0047,0.01998,0.10353,0.00676,0.00237,0.00429,0.00508,0.00415,0.00488
0.00624,0.00796,0.00838,0.00302,0.00621,0.56934,0.00441,0.67649,0.00857,0.03295,0.5119,0.0018,0.0045,0.00556,0.02012,0.09147,0.00636,0.00237,0.00434,0.00534,0.00427,0.00536
0.00624,0.00636,0.00781,0.00532,0.01136,0.57924,0.04589,0.64878,0.00744,0.07883,0.4528,0.00184,0.00511,0.00558,0.02219,0.09504,0.00657,0.00229,0.00423,0.00583,0.00423,0.00589
0.00603,0.00816,0.008,0.01274,0.00643,0.63295,0.00448,0.79285,0.00876,0.03353,0.56885,0.00244,0.00468,0.00591,0.01936,0.10882,0.0064,0.00332,0.00448,0.00784,0.00431,0.0063
0.00554,0.00683,0.00687,0.00463,0.01118,0.58979,0.04585,0.91452,0.00744,0.07837,0.42359,0.0036,0.0047,0.00525,0.01769,0.09822,0.00693,0.00446,0.00434,0.00548,0.00452,0.00503
0.0065,0.00654,0.00841,0.00438,0.00641,0.82045,0.00445,1.11018,0.00869,0.0332,0.62323,0.01175,0.00479,0.00499,0.01834,0.0989,0.00687,0.01085,0.00495,0.00487,0.00487,0.00507
0.00603,0.00697,0.00648,0.00538,0.01128,0.56965,0.04587,0.9058,0.0075,0.07807,0.37014,0.02018,0.00493,0.00554,0.02279,0.10226,0.00607,0.01358,0.00519,0.00601,0.00438,0.00562
0.00657,0.00872,0.00779,0.01255,0.00635,0.71164,0.00452,0.7529,0.00859,0.03363,0.59078,0.01025,0.00536,0.00628,0.03057,0.09395,0.00741,0.00839,0.00456,0.00837,0.00489,0.00693
0.00601,0.00646,0.00597,0.00956,0.01132,0.8141,0.04585,0.96872,0.00756,0.0779,0.69233,0.01025,0.00483,0.00566,0.02703,0.11083,0.00666,0.00867,0.0053,0.00543,0.00483,0.00583
0.00663,0.00771,0.00671,0.00568,0.00629,0.70034,0.00445,0.87888,0.00845,0.03347,0.76157,0.00477,0.00608,0.00603,0.0223,0.1099,0.00693,0.00459,0.00562,0.00614,0.00493,0.00609
0.00699,0.00794,0.00872,0.00628,0.01161,0.73451,0.04604,0.85293,0.00777,0.07925,0.73034,0.012,0.00622,0.00706,0.01567,0.09143,0.00855,0.01255,0.00663,0.00667,0.00513,0.00738
0.00792,0.00828,0.00838,0.00413,0.00592,0.73272,0.00417,1.01815,0.00841,0.03334,0.55086,0.00457,0.00624,0.00621,0.0189,0.08772,0.00843,0.00499,0.00863,0.00667,0.00495,0.00699
0.00877,0.01027,0.00933,0.00696,0.01171,0.8017,0.0462,0.79713,0.00765,0.07887,0.66479,0.00265,0.00765,0.00755,0.02131,0.10451,0.01021,0.00298,0.00687,0.00775,0.0056,0.00826
0.00707,0.00967,0.00914,0.00736,0.00594,0.51768,0.00407,0.5857,0.00857,0.03345,0.65249,0.00225,0.00669,0.00765,0.01711,0.12388,0.00752,0.0028,0.00564,0.00861,0.00624,0.00777
0.00746,0.00809,0.00881,0.01158,0.01177,0.68781,0.04632,0.79544,0.00752,0.07809,0.73821,0.00215,0.00581,0.00636,0.01599,0.11262,0.00832,0.00301,0.00915,0.00713,0.00581,0.0066
0.0083,0.00851,0.00763,0.00598,0.00594,0.49396,0.00406,0.46237,0.00873,0.0342,0.50941,0.00239,0.00802,0.00659,0.02046,0.09295,0.0075,0.00272,0.01127,0.00744,0.00507,0.00753
0.00882,0.00937,0.00855,0.02404,0.01173,0.65276,0.0462,0.74579,0.00742,0.07665,0.50683,0.0034,0.00703,0.00591,0.02805,0.07805,0.00933,0.00366,0.00711,0.00605,0.00497,0.00605
0.00724,0.00822,0.00927,0.00641,0.00584,0.58424,0.00415,0.64874,0.00874,0.03589,0.4864,0.00173,0.00496,0.0048,0.02429,0.0822,0.00748,0.00216,0.00484,0.00458,0.00468,0.0054
0.00648,0.00929,0.01027,0.00527,0.01179,0.56093,0.04616,0.48265,0.0074,0.07505,0.579,0.00202,0.00511,0.00577,0.02034,0.0942,0.00804,0.00307,0.00532,0.00739,0.00462,0.00774
0.0056,0.00832,0.00815,0.00585,0.006,0.53945,0.00417,0.54155,0.00857,0.03745,0.48937,0.00223,0.00511,0.00611,0.01691,0.10638,0.0074,0.00235,0.00466,0.00714,0.00505,0.00726
0.00716,0.00902,0.01267,0.00462,0.01161,0.60801,0.04608,0.75096,0.00769,0.07455,0.51521,0.00206,0.00589,0.00581,0.0204,0.09622,0.00927,0.00249,0.00526,0.00533,0.00515,0.00556
0.00591,0.0057,0.00649,0.00388,0.00596,0.94045,0.00417,1.04049,0.00837,0.03806,0.59862,0.002,0.00544,0.00521,0.01922,0.09501,0.00596,0.0029,0.00552,0.00521,0.00411,0.00525
0.00741,0.008,0.00786,0.00684,0.01161,1.06307,0.04618,1.12668,0.00791,0.07373,0.82217,0.0036,0.00532,0.00583,0.01996,0.09702,0.00786,0.00331,0.00493,0.00716,0.00477,0.00616
0.0074,0.00841,0.00869,0.05601,0.00618,7.23313,0.00415,1.67941,0.0083,0.03745,1.16084,0.00391,0.00616,0.00632,0.02461,0.1098,0.00847,0.00383,0.00577,0.0065,0.00561,0.00652
0.00749,0.00974,0.0099,0.03751,0.00759,1.27092,0.01938,1.07926,0.00785,0.04751,0.64449,0.00446,0.00665,0.00642,0.01987,0.1001,0.00841,0.00462,0.00607,0.00847,0.00618,0.00814
0.00832,0.01103,0.0092,0.08005,0.0124,0.48414,0.04619,0.63889,0.00834,0.08306,0.55825,0.00692,0.00638,0.01034,0.01953,0.08959,0.0091,0.00684,0.00724,0.01463,0.00667,0.03384
0.00683,0.00799,0.00834,0.05629,0.0053,0.69766,0.00413,1.18924,0.00769,0.02891,0.52646,0.00355,0.00689,0.00645,0.01877,0.0732,0.00885,0.00404,0.00597,0.00622,0.00581,0.01128
0.00749,0.00638,0.00664,0.00423,0.01224,0.93158,0.0462,1.23519,0.00835,0.08238,0.8188,0.00436,0.00595,0.00593,0.01984,0.10624,0.00687,0.00419,0.00636,0.00536,0.00505,0.0053
0.00691,0.00741,0.00734,0.01985,0.00545,0.83451,0.00406,1.09005,0.00783,0.02997,0.69222,0.01891,0.00585,0.00646,0.01895,0.10107,0.00786,0.01317,0.00566,0.00651,0.00538,0.0064
0.00882,0.00999,0.00962,0.01527,0.01216,0.51054,0.04622,0.59322,0.00824,0.08217,0.39401,0.00699,0.00839,0.00866,0.02359,0.09635,0.01037,0.00622,0.00825,0.00888,0.00747,0.00859
0.00795,0.00934,0.0099,0.00562,0.00545,0.73859,0.00409,0.96407,0.00779,0.02942,0.60716,0.00388,0.00724,0.00695,0.02139,0.09468,0.00941,0.00482,0.00711,0.00873,0.00593,0.00783
0.00619,0.00674,0.0067,0.00454,0.01206,0.74476,0.04622,1.13423,0.00812,0.0818,0.51613,0.0029,0.0054,0.00456,0.02069,0.09983,0.00691,0.0029,0.00496,0.00541,0.00468,0.00552
0.00706,0.00761,0.0089,0.00743,0.00575,0.49737,0.00396,0.67022,0.00795,0.03055,0.44316,0.00231,0.00532,0.00606,0.02201,0.09332,0.00714,0.00317,0.00511,0.00751,0.00491,0.0061
0.00603,0.00867,0.00771,0.01324,0.0121,0.46478,0.04628,0.52537,0.00806,0.08125,0.36667,0.00284,0.00526,0.007,0.01809,0.08528,0.00732,0.00342,0.00407,0.00976,0.0046,0.00786
0.00599,0.00765,0.00734,0.0071,0.00582,0.58278,0.00409,0.78804,0.00818,0.03117,0.40763,0.00299,0.00472,0.00564,0.02005,0.09351,0.00667,0.00344,0.00429,0.00709,0.00415,0.00609
0.00558,0.00585,0.00562,0.00384,0.01179,0.64594,0.0462,0.93761,0.00781,0.0803,0.50306,0.0021,0.00476,0.00427,0.01934,0.08819,0.00527,0.00245,0.00452,0.00447,0.00421,0.00468
0.0053,0.00734,0.00694,0.01061,0.00619,0.54657,0.00427,0.60703,0.00845,0.03344,0.46651,0.00211,0.00438,0.00675,0.02308,0.09982,0.00634,0.00258,0.00438,0.008,0.00415,0.00708
0.00644,0.00808,0.0074,0.01414,0.01144,0.51308,0.046,0.62162,0.00756,0.07774,0.4029,0.00174,0.00474,0.00644,0.01733,0.08283,0.00714,0.00243,0.00444,0.00886,0.00464,0.00751
0.00642,0.00634,0.00781,0.00608,0.00625,0.61223,0.00429,0.68803,0.00843,0.03371,0.51364,0.00176,0.00474,0.00486,0.02462,0.09278,0.0063,0.00239,0.00464,0.00551,0.00454,0.00529
0.00609,0.00628,0.0073,0.0038,0.01126,0.8436,0.046,0.83162,0.00752,0.07843,0.53803,0.00948,0.00442,0.00442,0.02757,0.10262,0.00595,0.00762,0.00454,0.00485,0.00429,0.00497
0.0065,0.00728,0.00732,0.00428,0.00623,0.8444,0.00429,1.14174,0.00849,0.03281,0.64734,0.00432,0.0046,0.00526,0.0282,0.09969,0.00654,0.00394,0.00458,0.00642,0.00462,0.00528
0.00681,0.0072,0.00828,0.02007,0.0114,0.57563,0.04597,0.78166,0.00752,0.07876,0.5123,0.00427,0.00524,0.0056,0.02998,0.09352,0.00687,0.00419,0.00501,0.00603,0.0053,0.007
0.00732,0.00833,0.00996,0.02223,0.00616,0.68026,0.00437,0.7126,0.00855,0.03281,0.51981,0.01786,0.00593,0.00687,0.01916,0.08676,0.0091,0.01538,0.00587,0.00593,0.00552,0.0082
0.00681,0.00888,0.00771,0.00495,0.01134,0.941,0.04585,0.98153,0.00742,0.07889,0.72402,0.00795,0.00642,0.00753,0.01666,0.07917,0.00834,0.0062,0.00527,0.00609,0.00472,0.00742
0.00699,0.01076,0.00996,0.02474,0.00633,0.5944,0.00448,0.61928,0.00871,0.0333,0.40516,0.00394,0.00632,0.00585,0.02054,0.09262,0.00908,0.00353,0.00474,0.00661,0.00544,0.00824
0.00796,0.01158,0.00922,0.01136,0.01136,0.6195,0.04581,0.7391,0.00734,0.07825,0.49569,0.00321,0.00677,0.0088,0.01715,0.10922,0.00957,0.0044,0.0053,0.00925,0.00597,0.00871
0.00687,0.00795,0.00732,0.00699,0.00639,0.81353,0.00452,0.90678,0.00867,0.03341,0.54267,0.00266,0.0047,0.00467,0.01462,0.09914,0.00691,0.00438,0.00476,0.0059,0.00497,0.00593
0.00677,0.00709,0.00724,0.00677,0.01124,0.6269,0.04583,0.64341,0.00752,0.0785,0.48674,0.00381,0.00444,0.00499,0.01559,0.0932,0.00673,0.0046,0.00556,0.00581,0.00552,0.00612
0.00677,0.00919,0.00831,0.00995,0.00639,0.6437,0.0045,0.69967,0.00857,0.03351,0.48122,0.00208,0.0053,0.00642,0.01343,0.09038,0.00732,0.00337,0.00511,0.00861,0.00495,0.00853
0.0063,0.00906,0.0083,0.00809,0.0112,0.5396,0.04583,0.46174,0.00759,0.0778,0.45565,0.00202,0.00497,0.00626,0.01342,0.10004,0.00808,0.00233,0.00476,0.00715,0.00489,0.00705
0.00698,0.01029,0.00863,0.0064,0.00641,0.6358,0.00446,0.65209,0.00855,0.03367,0.46276,0.00192,0.00509,0.00595,0.01624,0.11176,0.00843,0.00286,0.00472,0.00755,0.00489,0.00679
0.00564,0.00734,0.00652,0.00548,0.0115,4.76638,0.04593,1.27038,0.00767,0.07827,0.77403,0.0018,0.00435,0.00484,0.01302,0.10229,0.00597,0.00231,0.00438,0.00509,0.00423,0.00536
0.00646,0.00814,0.0074,0.00775,0.00604,1.59296,0.00431,0.89285,0.00843,0.03386,0.66573,0.00219,0.00405,0.00483,0.01254,0.09524,0.00611,0.0026,0.00448,0.0062,0.00438,0.0061
0.0074,0.00879,0.00943,0.79919,0.01169,0.82463,0.04616,1.05721,0.00781,0.07915,0.61603,0.00215,0.00595,0.00759,0.01418,0.10782,0.00777,0.00442,0.00565,0.01382,0.00614,0.01085
0.00572,0.00789,0.00711,0.04568,0.00594,0.80981,0.00411,1.17839,0.00851,0.03353,0.62169,0.00504,0.00511,0.00634,0.0169,0.11244,0.0072,0.00388,0.00521,0.00593,0.00456,0.00699
0.0081,0.00896,0.00999,0.00907,0.01177,0.58422,0.0463,0.69642,0.00763,0.07762,0.42395,0.00454,0.0069,0.00849,0.01394,0.10346,0.00923,0.00335,0.00679,0.00876,0.00655,0.00822
0.00746,0.0101,0.00865,0.01019,0.00598,0.90374,0.00406,1.15974,0.00859,0.03457,0.62536,0.00274,0.00683,0.00724,0.01165,0.08788,0.00875,0.00391,0.00544,0.00871,0.00531,0.00802
0.00619,0.00721,0.00711,0.00744,0.01173,0.96268,0.0462,1.41064,0.00744,0.07675,0.78243,0.002,0.00468,0.00482,0.01133,0.1042,0.0059,0.00276,0.00521,0.00648,0.00456,0.00632
0.00675,0.00859,0.00855,0.01277,0.00586,1.00866,0.00415,0.88078,0.00876,0.03587,0.80838,0.00704,0.00493,0.00704,0.0109,0.09188,0.00759,0.00444,0.00497,0.00822,0.00462,0.00798
0.00796,0.00834,0.00859,0.00825,0.01179,1.15379,0.04616,1.33662,0.0075,0.07505,0.9924,0.03388,0.00579,0.00589,0.01238,0.11567,0.00875,0.02356,0.00718,0.00832,0.00558,0.00744
0.00793,0.00877,0.00933,0.02929,0.00588,1.3112,0.00413,1.33699,0.00857,0.03724,1.14686,0.00921,0.00599,0.00646,0.01153,0.10013,0.00959,0.00569,0.00533,0.00726,0.00566,0.00734
0.00976,0.01037,0.01058,0.02543,0.01173,0.91461,0.04618,1.25501,0.00773,0.07464,0.66716,0.00353,0.00763,0.008,0.0125,0.08479,0.01115,0.0038,0.00651,0.00953,0.00724,0.00837
0.00975,0.01,0.01115,0.01433,0.00596,0.76042,0.00413,1.06394,0.00835,0.03761,0.62212,0.00821,0.00675,0.00841,0.01329,0.09589,0.00942,0.00741,0.00728,0.00889,0.0072,0.00822
0.00758,0.00807,0.00877,0.00749,0.01161,0.7434,0.04612,0.79639,0.00793,0.07418,0.60864,0.00822,0.00558,0.00574,0.0113,0.10181,0.0074,0.00529,0.00548,0.00722,0.00507,0.0056
0.00783,0.01136,0.0132,0.01742,0.00619,0.5078,0.00419,0.49982,0.00826,0.03741,0.41136,0.00373,0.00702,0.00778,0.01362,0.09694,0.01046,0.00331,0.00523,0.01052,0.00509,0.00818
0.00847,0.00959,0.01247,0.00822,0.01142,0.60648,0.0461,0.72857,0.00781,0.07421,0.56168,0.00251,0.00501,0.00646,0.01391,0.08537,0.0092,0.00284,0.00481,0.00676,0.00474,0.00656
0.00515,0.00682,0.00758,0.00402,0.01244,0.68283,0.04622,0.74482,0.00836,0.08194,0.57162,0.00213,0.00468,0.00493,0.01432,0.08511,0.00681,0.00278,0.00427,0.00536,0.00425,0.00521
0.00681,0.00824,0.00849,0.00954,0.00528,0.52508,0.00415,0.5538,0.00783,0.02998,0.44674,0.00254,0.00479,0.0077,0.01497,0.0912,0.00798,0.00344,0.00448,0.00901,0.00444,0.00788
0.00726,0.00855,0.01072,0.01037,0.01226,0.76374,0.0462,0.61348,0.00832,0.08229,0.45786,0.00268,0.00517,0.00707,0.01636,0.08951,0.00814,0.00243,0.00376,0.00676,0.00433,0.00724
0.00671,0.00806,0.01002,0.00682,0.00538,0.70126,0.00406,0.75928,0.00773,0.03002,0.52148,0.00202,0.00501,0.00685,0.019,0.08914,0.00765,0.00305,0.00448,0.00589,0.00417,0.0066
0.00693,0.00642,0.01023,0.03494,0.01224,0.52162,0.04626,0.55451,0.00832,0.08205,0.421,0.00184,0.00567,0.0048,0.01719,0.08838,0.00738,0.00276,0.00501,0.00609,0.00444,0.00577
0.00755,0.00818,0.00998,0.00858,0.00539,0.38198,0.00407,0.48378,0.00775,0.02932,0.32619,0.00157,0.00415,0.00558,0.01505,0.09195,0.00636,0.00245,0.00446,0.00751,0.00444,0.00698
0.00601,0.00621,0.0073,0.00634,0.01216,0.53854,0.0462,0.62735,0.0082,0.0823,0.37622,0.00196,0.00429,0.00499,0.01294,0.09192,0.00587,0.00237,0.0047,0.00558,0.00427,0.0054
0.00499,0.00603,0.00767,0.00464,0.00557,0.64318,0.004,0.76234,0.00789,0.02981,0.48111,0.00172,0.00388,0.00511,0.01893,0.07133,0.0064,0.00207,0.00409,0.00407,0.00421,0.00528
0.00483,0.0062,0.00617,0.00673,0.01208,0.64141,0.04626,0.74725,0.00804,0.08203,0.50953,0.00176,0.00458,0.00567,0.02306,0.07535,0.00632,0.00239,0.00446,0.00596,0.00444,0.00519
0.00628,0.00861,0.00814,0.00816,0.00606,0.60002,0.00411,0.77154,0.00808,0.03036,0.4848,0.002,0.00583,0.0064,0.01952,0.09909,0.00693,0.00321,0.00472,0.00798,0.00436,0.00755
0.00568,0.00703,0.00736,0.00814,0.01175,0.63533,0.04618,0.77268,0.00797,0.08145,0.55284,0.00207,0.00448,0.00505,0.02334,0.11953,0.0064,0.00272,0.00466,0.00568,0.00432,0.00564
0.00632,0.00724,0.00732,0.0117,0.0061,0.57677,0.00423,0.65647,0.00841,0.03198,0.52973,0.00248,0.00413,0.00493,0.02292,0.12078,0.00673,0.00391,0.00491,0.00599,0.00434,0.0054
0.00646,0.00794,0.00697,0.01901,0.01157,0.50322,0.04606,0.51491,0.00759,0.07903,0.42518,0.00303,0.00561,0.00663,0.01811,0.08529,0.00712,0.00384,0.00495,0.00671,0.00493,0.00692
0.00665,0.0089,0.00765,0.00701,0.00621,0.5238,0.00433,0.67704,0.00845,0.03416,0.42306,0.00292,0.00534,0.00589,0.01103,0.10513,0.00734,0.00323,0.00468,0.00587,0.00515,0.00579
0.00538,0.01019,0.00705,0.00337,0.01134,0.6993,0.04597,0.73962,0.00759,0.07845,0.48131,0.0021,0.00415,0.00421,0.01346,0.0821,0.00597,0.00245,0.00431,0.00521,0.00458,0.00511
0.00601,0.00859,0.00679,0.00733,0.00621,0.6909,0.00431,0.75139,0.00849,0.03291,0.50985,0.00196,0.00462,0.00569,0.01479,0.11135,0.00679,0.00225,0.00479,0.00739,0.00433,0.00634
0.00593,0.0074,0.00771,0.00841,0.0114,0.58524,0.04598,0.75848,0.00756,0.07881,0.4934,0.00168,0.00429,0.0061,0.01796,0.12916,0.00677,0.0027,0.00436,0.00736,0.00464,0.00652
0.00751,0.0088,0.01146,0.00631,0.00617,0.72589,0.00435,0.88002,0.00847,0.03281,0.58669,0.0017,0.00436,0.00517,0.01562,0.11326,0.00839,0.00258,0.00454,0.00587,0.00434,0.00564
0.00705,0.00834,0.01006,0.00808,0.01138,0.93066,0.04589,0.84758,0.0075,0.07891,0.80751,0.00194,0.00425,0.00646,0.01421,0.09893,0.00822,0.00217,0.00448,0.00702,0.00417,0.00644
0.00775,0.00976,0.01229,0.01421,0.00629,0.48147,0.00448,0.50878,0.00863,0.03303,0.47142,0.00207,0.00579,0.00781,0.01307,0.08142,0.00834,0.0027,0.00483,0.00939,0.00487,0.00804
0.00869,0.01389,0.01649,0.00821,0.01138,0.59719,0.04585,0.7406,0.00742,0.07854,0.51059,0.00209,0.00653,0.00703,0.01401,0.09061,0.01062,0.00317,0.00466,0.00887,0.00495,0.0074
0.00529,0.00622,0.00685,0.0042,0.00641,0.54533,0.00448,0.661,0.00871,0.03342,0.47951,0.00266,0.00402,0.00425,0.01479,0.0925,0.00549,0.00301,0.00474,0.00523,0.00417,0.00527
0.00573,0.00767,0.00724,0.00708,0.01118,1.02843,0.04585,1.59703,0.00738,0.07833,0.8457,0.00551,0.00524,0.00557,0.01892,0.08012,0.00821,0.00405,0.00425,0.00687,0.00473,0.00669
0.00646,0.00658,0.00777,0.01443,0.00641,0.71802,0.00452,0.97576,0.00867,0.03361,0.53763,0.00472,0.0062,0.00646,0.01656,0.07867,0.00793,0.0055,0.00497,0.00603,0.00581,0.00611
0.00904,0.00921,0.01033,0.00868,0.01122,0.71931,0.04577,0.82788,0.00754,0.0777,0.61132,0.02659,0.00601,0.00687,0.01943,0.09353,0.00931,0.02292,0.00706,0.00853,0.00556,0.00706
0.00617,0.00855,0.00791,0.00939,0.00633,0.79416,0.0045,0.83136,0.00865,0.03357,0.58516,0.01068,0.00548,0.00685,0.01418,0.0962,0.00838,0.00588,0.00499,0.00861,0.00519,0.00746
0.00802,0.00865,0.00918,0.00525,0.01161,0.94831,0.04591,1.13889,0.00761,0.07811,0.80489,0.00406,0.00589,0.0063,0.01694,0.09091,0.00955,0.00327,0.00499,0.00593,0.00497,0.00691
0.00695,0.00947,0.0076,0.01565,0.0061,0.58826,0.00441,0.76109,0.00845,0.03379,0.48718,0.0036,0.00527,0.00603,0.0131,0.08926,0.00859,0.00284,0.00491,0.00765,0.00538,0.00665
0.00978,0.01234,0.01111,0.01171,0.01165,0.48861,0.0461,0.54776,0.00775,0.07872,0.40333,0.00276,0.00626,0.00745,0.01368,0.10139,0.00912,0.00344,0.00489,0.01019,0.00562,0.00886
0.0066,0.00946,0.00949,0.00739,0.00586,0.66222,0.00411,0.87591,0.00845,0.03355,0.50092,0.00243,0.00503,0.00691,0.0103,0.10387,0.00828,0.00309,0.00456,0.00791,0.00454,0.00826
0.00574,0.00689,0.00896,0.00382,0.01179,0.59276,0.04622,0.78972,0.00758,0.07807,0.44084,0.00149,0.0039,0.00499,0.01025,0.08942,0.00677,0.00217,0.00405,0.00511,0.0045,0.0056
0.00669,0.00872,0.00857,0.0087,0.00598,0.61108,0.00413,0.5726,0.00869,0.03412,0.46041,0.00231,0.00524,0.00646,0.01248,0.08359,0.00765,0.00293,0.00511,0.00733,0.00501,0.00714
0.0062,0.00943,0.0072,0.00687,0.01177,0.64715,0.04624,0.80842,0.00752,0.07727,0.4519,0.00241,0.00481,0.00554,0.01208,0.09376,0.00685,0.00307,0.00454,0.00761,0.00448,0.00656
0.00622,0.00971,0.00884,0.00419,0.00582,0.92308,0.00411,1.1106,0.00871,0.03486,0.71627,0.00161,0.00403,0.00452,0.01145,0.10221,0.00697,0.00204,0.00479,0.00539,0.00403,0.00497
0.00603,0.00764,0.00803,0.00694,0.01173,0.69206,0.04614,0.75297,0.00756,0.0761,0.48249,0.00184,0.00438,0.00491,0.0152,0.08493,0.0066,0.00229,0.00477,0.00673,0.00493,0.00642
0.00958,0.01158,0.01384,0.01189,0.0059,0.41721,0.00417,0.47838,0.00859,0.03652,0.33235,0.00215,0.00559,0.00774,0.01108,0.07831,0.01109,0.00332,0.00501,0.01015,0.00544,0.00954
0.00596,0.00965,0.00923,0.0077,0.01173,0.68537,0.04616,0.80998,0.0075,0.07425,0.5534,0.00161,0.00472,0.00593,0.01256,0.08091,0.00731,0.00333,0.00495,0.00654,0.00425,0.00656
0.00564,0.00664,0.00615,0.00353,0.00596,0.80114,0.00413,1.03424,0.00855,0.0386,0.64657,0.00159,0.00376,0.00405,0.01334,0.09086,0.00546,0.00255,0.0044,0.00515,0.00423,0.00472
0.00712,0.00851,0.00753,0.011,0.01163,0.55789,0.0461,0.62733,0.00759,0.07363,0.43525,0.0019,0.00452,0.00538,0.01299,0.07408,0.00665,0.00272,0.00452,0.00827,0.00507,0.00671
0.00777,0.00949,0.00914,0.00936,0.00598,0.66275,0.00421,0.9096,0.00847,0.03794,0.4922,0.006,0.00479,0.00642,0.00999,0.08878,0.009,0.00518,0.00479,0.00851,0.00511,0.00757
0.00556,0.00631,0.00664,0.00465,0.01165,0.73633,0.04612,1.07414,0.00785,0.07406,0.57655,0.00239,0.00423,0.00476,0.01125,0.08109,0.00619,0.0031,0.00452,0.00537,0.0039,0.00496
0.00651,0.00761,0.00837,0.00632,0.01241,0.88154,0.0463,1.63497,0.00841,0.08202,0.60478,0.00856,0.0045,0.00606,0.01311,0.07686,0.00738,0.00725,0.00474,0.0073,0.00456,0.00733
0.00663,0.00822,0.0081,0.00829,0.00514,1.0383,0.00409,1.81622,0.00779,0.03002,0.68032,0.00929,0.00475,0.00636,0.01137,0.08111,0.00726,0.01181,0.00491,0.00855,0.0047,0.00749
0.00638,0.00859,0.00882,0.00754,0.01237,0.65566,0.0462,0.68478,0.00834,0.08217,0.62787,0.04412,0.00554,0.0065,0.01418,0.0825,0.00865,0.02971,0.00636,0.00832,0.00542,0.00712
0.00646,0.00804,0.00767,0.00351,0.00534,0.7971,0.00409,0.9256,0.00771,0.03024,0.66185,0.02495,0.0054,0.00601,0.02138,0.06872,0.00802,0.02238,0.00478,0.00675,0.00493,0.00591
0.00779,0.01029,0.00945,0.00712,0.0122,0.46906,0.04626,0.63109,0.00835,0.08158,0.38795,0.00257,0.0045,0.00591,0.01061,0.06847,0.00755,0.0029,0.00501,0.00804,0.00474,0.0065
0.00861,0.0134,0.01199,0.01019,0.00545,0.52969,0.00407,0.68666,0.00781,0.02971,0.38545,0.00184,0.00561,0.00681,0.01131,0.07816,0.0105,0.00286,0.00569,0.00927,0.0061,0.0087
0.00545,0.00743,0.00594,0.00475,0.01214,0.71709,0.04618,0.94425,0.00816,0.08238,0.51935,0.00192,0.00482,0.00552,0.0159,0.08744,0.00617,0.0029,0.00513,0.00598,0.00445,0.0066
0.00556,0.00662,0.00652,0.00558,0.00549,0.54689,0.00407,0.66292,0.00791,0.02957,0.44394,0.00178,0.00438,0.00519,0.01732,0.07148,0.00661,0.00253,0.00419,0.00597,0.00434,0.00576
0.00593,0.00826,0.00876,0.01132,0.01204,0.6106,0.04622,0.86751,0.00802,0.08139,0.437,0.00209,0.0052,0.00593,0.0149,0.2575,0.0079,0.00303,0.00491,0.00831,0.0047,0.00753
0.00652,0.00738,0.00855,0.0041,0.00616,0.60881,0.00409,0.90998,0.0082,0.03106,0.45509,0.00225,0.00489,0.00579,0.01423,0.19859,0.00744,0.00276,0.00497,0.00568,0.00425,0.00582
0.00603,0.00849,0.00996,0.00772,0.01177,0.67021,0.04622,0.87398,0.00789,0.08088,0.49769,0.00192,0.00458,0.00527,0.01573,0.10103,0.00794,0.00282,0.00437,0.00771,0.00434,0.00704
0.0063,0.00879,0.00781,0.00863,0.00578,0.53475,0.00409,0.77419,0.00818,0.03223,0.45062,0.00221,0.00511,0.00733,0.01169,0.10404,0.0072,0.00335,0.00534,0.00843,0.00477,0.00742
0.00636,0.00793,0.00765,0.00431,0.01187,0.72099,0.04618,0.87557,0.00773,0.0794,0.55785,0.00553,0.0046,0.00603,0.01293,0.1427,0.00732,0.00663,0.00472,0.00668,0.00462,0.00693
0.00585,0.00775,0.0075,0.00345,0.0062,1.07102,0.00429,1.16234,0.00849,0.03406,0.68408,0.0061,0.00477,0.00507,0.01143,0.09741,0.00705,0.00593,0.00411,0.00544,0.00409,0.00558
0.00624,0.00841,0.00794,0.00942,0.0114,0.78373,0.04604,1.41735,0.00761,0.07825,0.55723,0.00482,0.0055,0.0061,0.01453,0.09224,0.00753,0.00374,0.00528,0.00898,0.00493,0.00761
0.00816,0.00912,0.00992,0.06582,0.00625,0.73399,0.00425,1.12806,0.00847,0.03285,0.56205,0.01069,0.00689,0.01243,0.01056,0.11522,0.00861,0.00714,0.00605,0.00775,0.00628,0.00929
0.00673,0.00738,0.00732,0.01005,0.01132,0.72038,0.04598,1.04562,0.00756,0.0785,0.5244,0.01033,0.00576,0.00627,0.01461,0.11542,0.00857,0.01058,0.00474,0.00671,0.00486,0.00691
0.00785,0.00902,0.00937,0.01045,0.00621,0.76565,0.00429,1.00097,0.00841,0.03316,0.56263,0.00565,0.00573,0.0072,0.01507,0.09357,0.00843,0.00705,0.00544,0.00843,0.0053,0.00747
0.00632,0.00789,0.00853,0.00633,0.01142,0.50753,0.04593,0.54535,0.00756,0.07881,0.46897,0.00444,0.0055,0.00675,0.02157,0.07848,0.00783,0.00562,0.00462,0.0074,0.00482,0.00699
0.00671,0.00902,0.01078,0.01097,0.00621,0.67216,0.00441,0.8963,0.00857,0.03295,0.53521,0.00296,0.00589,0.00671,0.01483,0.09525,0.00939,0.00448,0.00413,0.00904,0.00474,0.00818
0.00708,0.00797,0.00936,0.00414,0.01136,0.72854,0.04589,0.91966,0.00744,0.07883,0.57698,0.00229,0.00581,0.00624,0.01247,0.07634,0.00756,0.00329,0.00511,0.00596,0.00534,0.00605
0.00687,0.00734,0.00781,0.01022,0.00643,0.58269,0.00448,0.59164,0.00876,0.03353,0.49787,0.00442,0.0046,0.00552,0.01225,0.07538,0.00689,0.00505,0.00456,0.00734,0.00403,0.00654
0.00712,0.01046,0.00886,0.00965,0.01118,0.58918,0.04585,0.7386,0.00744,0.07837,0.50189,0.00192,0.00554,0.00698,0.01495,0.0847,0.00912,0.00274,0.00489,0.0091,0.00487,0.0081
0.00634,0.0069,0.00779,0.00486,0.00641,0.89498,0.00445,1.13656,0.00869,0.0332,0.69616,0.00186,0.00484,0.00486,0.01099,0.09435,0.00691,0.00303,0.00499,0.00646,0.00481,0.00597
0.00657,0.00706,0.00918,0.00429,0.01128,0.86192,0.04587,1.16003,0.0075,0.07807,0.59872,0.00715,0.00503,0.0064,0.01619,0.0904,0.00767,0.00671,0.00454,0.00513,0.00501,0.00556
0.00808,0.01021,0.01109,0.0094,0.00635,0.56469,0.00452,0.53947,0.00859,0.03363,0.45021,0.00263,0.00626,0.0072,0.0179,0.0876,0.00943,0.00333,0.00517,0.00903,0.00481,0.00851
0.00699,0.01082,0.0109,0.01191,0.01132,0.41561,0.04585,0.49283,0.00756,0.0779,0.33352,0.00393,0.00665,0.00839,0.01625,0.07177,0.01053,0.00428,0.00462,0.00976,0.00497,0.00861
0.00695,0.00883,0.00988,0.00485,0.00629,0.71562,0.00445,0.92881,0.00845,0.03347,0.57762,0.00262,0.00449,0.00498,0.01107,0.09244,0.00834,0.00265,0.0047,0.00521,0.00562,0.00535
0.00535,0.00623,0.0058,0.00858,0.01161,0.81482,0.04604,1.29763,0.00777,0.07925,0.62912,0.00151,0.00413,0.00517,0.02176,0.0843,0.00595,0.00221,0.00458,0.00497,0.00503,0.00493
0.0071,0.00939,0.00868,0.01066,0.00592,0.72315,0.00417,0.81082,0.00841,0.03334,0.57635,0.00203,0.00561,0.00735,0.01309,0.08614,0.00796,0.00307,0.00462,0.00849,0.00493,0.00845
0.00693,0.00896,0.00924,0.00668,0.01171,0.74942,0.0462,0.82963,0.00765,0.07887,0.70091,0.00789,0.00501,0.00535,0.01249,0.08544,0.00787,0.00786,0.00458,0.00765,0.00466,0.00693
0.00581,0.0064,0.00648,0.00591,0.00594,0.70787,0.00407,0.94766,0.00857,0.03345,0.60024,0.00273,0.00522,0.00468,0.01153,0.08716,0.00697,0.00275,0.00499,0.00476,0.00499,0.00527
0.00698,0.0082,0.0087,0.0054,0.01177,0.50052,0.04632,0.50421,0.00752,0.07809,0.4518,0.00303,0.00481,0.00573,0.01227,0.08179,0.00738,0.0035,0.00468,0.00698,0.00437,0.00636
0.00695,0.00894,0.01109,0.00976,0.00594,0.56906,0.00406,0.64352,0.00873,0.0342,0.45934,0.00208,0.00448,0.00698,0.02127,0.07717,0.00863,0.00239,0.00462,0.00794,0.00427,0.00749
0.00574,0.00678,0.00752,0.00352,0.01173,0.80226,0.0462,0.85817,0.00742,0.07665,0.6532,0.002,0.0047,0.00542,0.01176,0.07031,0.00631,0.00254,0.00454,0.00517,0.00436,0.00548
0.00544,0.00792,0.00746,0.00448,0.00584,0.58256,0.00415,0.57052,0.00874,0.03589,0.51122,0.00252,0.00483,0.00536,0.01215,0.05953,0.00689,0.00315,0.0046,0.00704,0.00403,0.00599
0.00712,0.01015,0.00939,0.01079,0.01179,0.57717,0.04616,0.51108,0.0074,0.07505,0.51949,0.00348,0.00464,0.00636,0.01178,0.07316,0.00861,0.00407,0.00507,0.00921,0.00489,0.00745
0.00734,0.00764,0.00826,0.00551,0.006,0.69626,0.00417,0.90606,0.00857,0.03745,0.55916,0.00239,0.00515,0.00562,0.01293,0.07378,0.00748,0.00284,0.00522,0.00586,0.0053,0.00546
0.00656,0.00685,0.00894,0.00312,0.01161,0.71113,0.04608,0.98759,0.00769,0.07455,0.53398,0.00291,0.00415,0.00499,0.01102,0.06223,0.00689,0.00292,0.00394,0.00491,0.0045,0.00478
0.00638,0.0081,0.00736,0.01167,0.00596,0.63102,0.00417,0.71869,0.00837,0.03806,0.58368,0.00231,0.00475,0.0063,0.01338,0.04284,0.00771,0.00309,0.00446,0.00874,0.00411,0.00774
0.00616,0.00797,0.00751,0.01055,0.01161,0.79494,0.04618,1.044,0.00791,0.07373,0.67737,0.0025,0.00507,0.00648,0.01553,0.03629,0.00654,0.00344,0.00436,0.00717,0.00481,0.00697
0.00745,0.00896,0.00796,0.0034,0.00618,0.87185,0.00415,1.1762,0.0083,0.03745,0.68117,0.00715,0.00573,0.00542,0.01648,0.04312,0.00861,0.00561,0.00513,0.00515,0.00528,0.00538
0.00664,0.00859,0.00871,0.00602,0.00759,0.6769,0.01938,0.87939,0.00785,0.04751,0.57723,0.0174,0.00583,0.00649,0.01724,0.06206,0.00746,0.01026,0.00562,0.00679,0.00534,0.00667
0.00695,0.01043,0.01021,0.00933,0.0124,0.73197,0.04619,1.34488,0.00834,0.08306,0.60361,0.01232,0.00591,0.00706,0.01777,0.0751,0.00876,0.00928,0.00528,0.00906,0.00456,0.00833
0.0071,0.00793,0.00805,0.00389,0.0053,0.69741,0.00413,1.06782,0.00769,0.02891,0.53012,0.00268,0.00552,0.00611,0.01154,0.06841,0.00818,0.00441,0.00456,0.00553,0.0052,0.00652
0.00665,0.00871,0.00865,0.00831,0.01224,0.944,0.0462,1.26816,0.00835,0.08238,0.61539,0.03827,0.00616,0.00777,0.0118,0.0773,0.00943,0.03169,0.00643,0.00849,0.00493,0.00802
0.00708,0.00791,0.0082,0.01052,0.00545,0.57089,0.00406,0.87968,0.00783,0.02997,0.48349,0.008,0.00497,0.00586,0.01299,0.08119,0.00805,0.00649,0.00521,0.00717,0.00499,0.00634
0.00742,0.00937,0.00963,0.00949,0.01216,0.68393,0.04622,0.74852,0.00824,0.08217,0.60364,0.00988,0.00659,0.00804,0.01231,0.07805,0.00935,0.00669,0.00565,0.00904,0.00538,0.00872
0.00736,0.01,0.00812,0.00445,0.00545,1.12313,0.00409,1.28179,0.00779,0.02942,0.84583,0.00893,0.0049,0.00498,0.01401,0.06759,0.00803,0.00667,0.00501,0.00578,0.00513,0.00633
0.00746,0.00891,0.01023,0.00516,0.01206,1.01651,0.04622,1.13694,0.00812,0.0818,0.85894,0.0024,0.00483,0.00579,0.01264,0.0756,0.00935,0.00304,0.00468,0.00569,0.00511,0.00626
0.00884,0.01199,0.01377,0.01185,0.00575,0.60827,0.00396,0.60353,0.00795,0.03055,0.57232,0.00301,0.00608,0.00925,0.0135,0.09634,0.01146,0.0046,0.00626,0.00989,0.0061,0.01019
0.0084,0.01092,0.01216,0.00856,0.0121,0.81881,0.04628,0.96206,0.00806,0.08125,0.63852,0.00483,0.00638,0.00824,0.01366,0.08183,0.00969,0.00474,0.00556,0.00832,0.00585,0.00844
0.00763,0.01024,0.01053,0.00541,0.00582,0.77314,0.00409,0.88895,0.00818,0.03117,0.69174,0.00325,0.00548,0.00554,0.01051,0.08537,0.00943,0.00284,0.00509,0.00615,0.00554,0.00627
0.0082,0.01098,0.01369,0.01019,0.01179,0.54569,0.0462,0.57535,0.00781,0.0803,0.422,0.00225,0.00485,0.00743,0.01531,0.38831,0.01019,0.00301,0.00556,0.00839,0.00532,0.00841
0.00767,0.01139,0.01114,0.01293,0.00619,0.61632,0.00427,0.55308,0.00845,0.03344,0.47799,0.00211,0.00595,0.00744,0.01288,0.59886,0.0101,0.00294,0.00491,0.00816,0.00548,0.00841
0.00757,0.0085,0.00774,0.00442,0.01144,0.76466,0.046,0.91503,0.00756,0.07774,0.60105,0.00159,0.00585,0.00587,0.01387,0.11586,0.009,0.00313,0.00558,0.00599,0.00548,0.00591
0.00703,0.00965,0.00826,0.00425,0.00625,0.69403,0.00429,0.82669,0.00843,0.03371,0.56817,0.00182,0.00517,0.0056,0.01368,0.09056,0.00713,0.00235,0.00491,0.00611,0.00509,0.00618
0.00703,0.00904,0.0099,0.0105,0.01126,0.53358,0.046,0.51509,0.00752,0.07843,0.45035,0.00188,0.00464,0.00552,0.01218,0.13481,0.00824,0.00295,0.0047,0.00845,0.00489,0.0079
0.00658,0.00785,0.00848,0.009,0.00623,0.64444,0.00429,0.83476,0.00849,0.03281,0.50232,0.00229,0.00477,0.00567,0.01198,0.08567,0.00746,0.00237,0.00479,0.0075,0.00444,0.0067
0.00646,0.00605,0.0065,0.00408,0.0114,0.92081,0.04597,1.35974,0.00752,0.07876,0.72006,0.0025,0.00477,0.00507,0.01168,0.14013,0.00625,0.00284,0.00384,0.00466,0.00413,0.0047
0.00638,0.0073,0.00769,0.00522,0.00616,0.68924,0.00437,0.77342,0.00855,0.03281,0.65111,0.00506,0.00476,0.00544,0.01746,0.12279,0.00669,0.00483,0.00469,0.00604,0.00446,0.00548
0.00784,0.01042,0.01056,0.013,0.01134,0.57603,0.04585,0.64837,0.00742,0.07889,0.49918,0.01306,0.0056,0.0086,0.01285,0.20442,0.00949,0.01587,0.0055,0.0097,0.0054,0.00915
0.00902,0.0092,0.01061,0.01049,0.00633,0.56138,0.00448,0.73187,0.00871,0.0333,0.4066,0.00524,0.00567,0.00666,0.01278,0.10374,0.00945,0.00446,0.00544,0.00744,0.00566,0.00717
0.00717,0.00998,0.00852,0.00395,0.01136,0.84242,0.04581,1.02981,0.00734,0.07825,0.65025,0.00335,0.00501,0.00517,0.01762,0.22696,0.00826,0.00321,0.00442,0.00564,0.00495,0.00611
0.00568,0.00785,0.0067,0.00581,0.00639,0.84397,0.00452,0.95041,0.00867,0.03341,0.69824,0.00235,0.00417,0.00478,0.01105,0.10025,0.00652,0.00276,0.00499,0.00571,0.00479,0.00581
0.00661,0.00898,0.00902,0.01458,0.01124,0.61552,0.04583,0.7299,0.00752,0.0785,0.45166,0.00508,0.00532,0.00753,0.01213,0.07863,0.00796,0.00518,0.00544,0.00833,0.00474,0.00786
0.00747,0.00888,0.00924,0.00476,0.00639,0.51962,0.0045,0.72986,0.00857,0.03351,0.41008,0.00347,0.00544,0.00564,0.01202,0.07726,0.00869,0.00397,0.00524,0.00636,0.00509,0.00619
0.00583,0.00748,0.00848,0.00567,0.0112,0.86355,0.04583,1.18047,0.00759,0.0778,0.63797,0.00214,0.00427,0.00591,0.01131,0.07863,0.00681,0.00362,0.00386,0.00644,0.00376,0.0062
0.00544,0.00652,0.00699,0.00599,0.00641,0.86137,0.00446,0.92342,0.00855,0.03367,0.8017,0.00188,0.00468,0.00566,0.01114,0.06529,0.00615,0.00343,0.00415,0.00579,0.00499,0.0057
0.00757,0.00923,0.00904,0.00954,0.0115,0.57487,0.04593,0.65887,0.00767,0.07827,0.51528,0.00332,0.00569,0.0071,0.01149,0.07915,0.00812,0.00362,0.00511,0.00866,0.0055,0.00782
0.00904,0.01223,0.01385,0.00699,0.00604,0.93644,0.00431,0.90156,0.00843,0.03386,0.8212,0.00274,0.00585,0.00673,0.01672,0.06523,0.01082,0.00323,0.00593,0.00812,0.00562,0.00736
0.00703,0.00647,0.00786,0.00324,0.01169,0.81822,0.04616,0.94473,0.00781,0.07915,0.65737,0.00493,0.00427,0.00517,0.01677,0.06704,0.00662,0.00423,0.00482,0.00429,0.00452,0.00519
0.00874,0.00882,0.01041,0.00428,0.00594,0.64324,0.00411,0.82409,0.00851,0.03353,0.46914,0.00253,0.00532,0.00587,0.01689,0.05951,0.00896,0.00378,0.00565,0.00688,0.0054,0.00679
0.00881,0.01304,0.01479,0.00854,0.01177,0.66999,0.0463,0.92106,0.00763,0.07762,0.48002,0.00206,0.00505,0.00638,0.01331,0.06697,0.01054,0.00235,0.00515,0.00833,0.00528,0.00783
0.00588,0.00741,0.00942,0.00541,0.00598,0.67635,0.00406,1.03084,0.00859,0.03457,0.51895,0.00202,0.00403,0.00544,0.01071,0.07099,0.00836,0.00319,0.00485,0.0064,0.00452,0.00668
0.00548,0.00679,0.00639,0.00386,0.01173,0.52474,0.0462,0.72117,0.00744,0.07675,0.38502,0.00327,0.00475,0.00608,0.01047,0.06279,0.00693,0.0037,0.00497,0.00595,0.00417,0.00595
0.00583,0.00781,0.00704,0.01091,0.00586,0.71966,0.00415,0.84289,0.00876,0.03587,0.57339,0.0079,0.00468,0.00638,0.01049,0.0729,0.008,0.00823,0.00419,0.00749,0.00442,0.00677
0.00583,0.00699,0.00699,0.00506,0.01179,0.78625,0.04616,1.17547,0.0075,0.07505,0.55311,0.00207,0.00415,0.00536,0.01033,0.06583,0.00691,0.00289,0.00491,0.00542,0.00423,0.00652
0.00667,0.00716,0.00738,0.00378,0.00588,0.81202,0.00413,0.96794,0.00857,0.03724,0.61251,0.00317,0.0053,0.00523,0.01158,0.05433,0.00755,0.00342,0.00519,0.00513,0.00477,0.00581
0.00704,0.0097,0.00912,0.01159,0.01173,0.52563,0.04618,0.60011,0.00773,0.07464,0.51213,0.00256,0.00544,0.00776,0.01123,0.05083,0.0098,0.00344,0.00556,0.00946,0.00507,0.00827
0.00701,0.00799,0.00857,0.00926,0.00596,0.59778,0.00413,0.71406,0.00835,0.03761,0.49538,0.00383,0.0055,0.00562,0.01373,0.06313,0.00762,0.00395,0.00507,0.00648,0.00524,0.00666
0.00599,0.00716,0.00677,0.00662,0.01161,0.65548,0.04612,0.88866,0.00793,0.07418,0.56302,0.00286,0.00491,0.00493,0.0205,0.07473,0.00689,0.00296,0.0046,0.00533,0.0047,0.00525
0.00636,0.00787,0.00738,0.00702,0.00619,0.90401,0.00419,0.88351,0.00826,0.03741,0.82913,0.00215,0.00401,0.00466,0.02576,0.05558,0.00706,0.0029,0.00421,0.00798,0.00446,0.00612
0.00691,0.00761,0.01001,0.01029,0.01142,0.63159,0.0461,0.99257,0.00781,0.07421,0.44785,0.00166,0.00497,0.00618,0.01155,0.06769,0.00779,0.00253,0.00513,0.00781,0.00493,0.00716
0.00781,0.00753,0.00994,0.00348,0.01244,0.72358,0.04622,1.18151,0.00836,0.08194,0.49572,0.00358,0.00515,0.00503,0.0125,0.07521,0.00757,0.00344,0.00454,0.00527,0.00511,0.00544
0.00609,0.00664,0.00723,0.00485,0.00528,0.61878,0.00415,1.18797,0.00783,0.02998,0.49862,0.01079,0.00522,0.00603,0.01106,0.06499,0.00685,0.00842,0.00481,0.00597,0.00413,0.00632
0.00579,0.00747,0.00767,0.01196,0.01226,0.63488,0.0462,0.83232,0.00832,0.08229,0.52568,0.01772,0.00581,0.00646,0.01186,0.05856,0.00749,0.01148,0.00505,0.00823,0.00499,0.00827
0.00653,0.00828,0.00826,0.00672,0.00538,0.7596,0.00406,1.37122,0.00773,0.03002,0.54027,0.02806,0.00568,0.00663,0.01131,0.06767,0.00794,0.02666,0.00593,0.00726,0.00522,0.00673
0.00603,0.00681,0.00666,0.00404,0.01224,0.70666,0.04626,1.0261,0.00832,0.08205,0.48791,0.00445,0.00423,0.00523,0.01356,0.06931,0.00695,0.00724,0.00478,0.0058,0.00429,0.00603
0.00654,0.00769,0.00695,0.01091,0.00539,0.62265,0.00407,0.85947,0.00775,0.02932,0.49107,0.02735,0.00481,0.00671,0.0118,0.06025,0.00798,0.02025,0.00602,0.00888,0.00532,0.00712
0.00605,0.00794,0.00744,0.00504,0.01216,0.82592,0.0462,1.22125,0.0082,0.0823,0.46377,0.01279,0.00497,0.00626,0.0236,0.06119,0.00806,0.00697,0.00466,0.00578,0.00439,0.0066
0.0062,0.00709,0.00785,0.00487,0.00557,0.50515,0.004,0.72653,0.00789,0.02981,0.38497,0.00315,0.00423,0.00523,0.03895,0.06506,0.00724,0.00421,0.00427,0.00603,0.00421,0.00577
0.00544,0.00913,0.0081,0.01233,0.01208,0.61259,0.04626,0.85165,0.00804,0.08203,0.46876,0.00337,0.0063,0.00724,0.01783,0.05438,0.00751,0.00354,0.00516,0.00902,0.0046,0.00857
0.00548,0.00779,0.00716,0.00524,0.00606,0.70508,0.00411,1.06272,0.00808,0.03036,0.51568,0.00266,0.00456,0.00486,0.01632,0.056,0.00742,0.00333,0.00483,0.00549,0.00513,0.00551
0.00651,0.0072,0.00685,0.00554,0.01175,0.55024,0.04618,0.8212,0.00797,0.08145,0.40081,0.00418,0.00411,0.00532,0.01199,0.06321,0.00677,0.00557,0.0047,0.00575,0.00429,0.00603
0.00661,0.00833,0.00724,0.01153,0.0061,0.49664,0.00423,0.60797,0.00841,0.03198,0.40147,0.00276,0.00561,0.007,0.01745,0.06032,0.00785,0.00485,0.00509,0.00769,0.00489,0.00741
0.0055,0.00771,0.00662,0.00674,0.01157,0.64185,0.04606,0.923,0.00759,0.07903,0.49278,0.00247,0.00558,0.0066,0.01121,0.04391,0.00677,0.00442,0.00495,0.0071,0.00505,0.00662
0.00566,0.00722,0.00659,0.00329,0.00621,0.85215,0.00433,1.19047,0.00845,0.03416,0.63034,0.00211,0.0039,0.0049,0.0111,0.0518,0.00562,0.00302,0.00481,0.00537,0.00376,0.00544
0.00609,0.00734,0.00689,0.00831,0.01134,0.97084,0.04597,1.21838,0.00759,0.07845,0.70506,0.00174,0.00389,0.00563,0.01543,0.04905,0.00648,0.00268,0.00431,0.00745,0.00413,0.00671
0.00624,0.00958,0.0087,0.00992,0.00621,0.7219,0.00431,0.88267,0.00849,0.03291,0.54737,0.00215,0.00495,0.00642,0.01708,0.04359,0.00845,0.00293,0.00464,0.00849,0.00473,0.00783
0.00642,0.00785,0.00912,0.00521,0.0114,0.73678,0.04598,1.03713,0.00756,0.07881,0.53011,0.00284,0.00575,0.00603,0.01667,0.04858,0.00916,0.00358,0.00464,0.00597,0.00458,0.00617
0.0064,0.0081,0.00754,0.00632,0.00617,0.77822,0.00435,1.07796,0.00847,0.03281,0.60977,0.00251,0.00407,0.00503,0.01906,0.04519,0.00769,0.00356,0.00511,0.0072,0.00444,0.0065
0.00634,0.00863,0.00853,0.00972,0.01138,0.53746,0.04589,0.6615,0.0075,0.07891,0.48014,0.00213,0.00518,0.00657,0.01814,0.04544,0.00755,0.00321,0.00495,0.00933,0.0046,0.00736
0.00654,0.00724,0.00732,0.00658,0.00629,0.76771,0.00448,1.15666,0.00863,0.03303,0.58076,0.00391,0.00534,0.00568,0.01461,0.04058,0.00775,0.00471,0.00532,0.00627,0.00483,0.00619
0.00683,0.00748,0.00773,0.00427,0.01138,0.70214,0.04585,0.88933,0.00742,0.07854,0.53125,0.0022,0.00444,0.00528,0.01659,0.04904,0.00746,0.00306,0.00437,0.00529,0.00429,0.00534
0.0064,0.00763,0.00724,0.01284,0.00641,0.56557,0.00448,0.7358,0.00871,0.03342,0.44391,0.00225,0.00487,0.00636,0.01236,0.03777,0.00695,0.00366,0.00536,0.00784,0.00417,0.0078
0.00663,0.00822,0.008,0.00938,0.01118,0.55526,0.04585,0.78101,0.00738,0.07833,0.48259,0.00239,0.00485,0.00581,0.01135,0.0373,0.0082,0.00337,0.0046,0.00755,0.00511,0.00707
0.00572,0.00779,0.00648,0.00439,0.00641,0.75028,0.00452,1.04125,0.00867,0.03361,0.50858,0.0025,0.00468,0.00505,0.01155,0.0491,0.00714,0.00294,0.00548,0.00496,0.00452,0.00597
0.00626,0.00716,0.0072,0.00718,0.01122,1.01719,0.04577,1.45512,0.00754,0.0777,0.66314,0.00208,0.0046,0.00626,0.0127,0.04062,0.00724,0.00311,0.00521,0.00688,0.00456,0.00681
0.00656,0.00859,0.00759,0.01228,0.00633,0.62494,0.0045,0.82325,0.00865,0.03357,0.48587,0.00282,0.00511,0.00792,0.01014,0.0401,0.0083,0.00338,0.00478,0.00779,0.00431,0.00806
0.00603,0.00855,0.00748,0.0135,0.01161,0.83417,0.04591,1.42948,0.00761,0.07811,0.56126,0.00424,0.00585,0.0067,0.01076,0.04625,0.00738,0.0052,0.00489,0.00843,0.00536,0.00697
0.00605,0.00734,0.00683,0.00434,0.0061,0.62302,0.00441,0.78178,0.00845,0.03379,0.47129,0.00366,0.00521,0.00523,0.0099,0.04741,0.00736,0.00384,0.00493,0.00566,0.00442,0.00578
0.0065,0.00915,0.00798,0.02108,0.01165,0.79391,0.0461,0.79162,0.00775,0.07872,0.52319,0.01747,0.00546,0.00761,0.0158,0.04433,0.00724,0.01315,0.00528,0.00818,0.00501,0.00784
0.00738,0.00752,0.00711,0.00684,0.00586,0.68354,0.00411,0.7868,0.00845,0.03355,0.48477,0.00281,0.00517,0.00543,0.0163,0.03956,0.00831,0.00346,0.00497,0.00562,0.00563,0.00586
0.00693,0.00771,0.00728,0.0064,0.01179,0.66458,0.04622,0.93556,0.00758,0.07807,0.51185,0.00223,0.0053,0.00534,0.01206,0.04121,0.00718,0.00282,0.00542,0.00542,0.00511,0.0054
0.00613,0.0071,0.00689,0.0089,0.00598,0.6078,0.00413,0.684,0.00869,0.03412,0.48092,0.00399,0.00474,0.00513,0.01059,0.03791,0.00712,0.00391,0.00482,0.00575,0.00462,0.00599
0.00726,0.00802,0.00935,0.01289,0.01177,0.46587,0.04624,0.49649,0.00752,0.07727,0.36869,0.00452,0.00561,0.00663,0.0116,0.04636,0.0083,0.00477,0.00501,0.00784,0.0054,0.00696
0.00593,0.0074,0.00912,0.00635,0.00582,0.75591,0.00411,1.10206,0.00871,0.03486,0.55783,0.00194,0.00444,0.00523,0.0111,0.0304,0.00675,0.00235,0.00401,0.0057,0.00417,0.00558
0.00589,0.00736,0.00871,0.00339,0.01173,0.65386,0.04614,0.98471,0.00756,0.0761,0.44214,0.00186,0.00466,0.00483,0.01164,0.04941,0.0081,0.00206,0.00436,0.00462,0.0045,0.00581
0.00663,0.01066,0.01125,0.00901,0.0059,0.45952,0.00417,0.53075,0.00859,0.03652,0.43483,0.00289,0.00558,0.00698,0.01246,0.0423,0.00882,0.00471,0.00475,0.00843,0.00477,0.00862
0.00566,0.00818,0.00658,0.00881,0.01173,0.37084,0.04616,0.40451,0.0075,0.07425,0.36616,0.00204,0.00456,0.00687,0.01147,0.04303,0.00679,0.00282,0.0044,0.00769,0.00427,0.00709
0.00624,0.00695,0.00784,0.00316,0.00596,0.60156,0.00413,0.79427,0.00855,0.0386,0.53261,0.00182,0.0045,0.00494,0.01082,0.03762,0.00671,0.00223,0.00474,0.00494,0.00444,0.00558
0.0056,0.00691,0.0073,0.00337,0.01163,0.72617,0.0461,0.8269,0.00759,0.07363,0.64463,0.00149,0.00542,0.00444,0.01192,0.03791,0.00646,0.00207,0.00415,0.00491,0.00483,0.00468
0.00753,0.01009,0.0114,0.00778,0.00598,0.59185,0.00421,0.56576,0.00847,0.03794,0.51233,0.00178,0.00544,0.00692,0.01049,0.05464,0.00841,0.00307,0.00464,0.00825,0.00548,0.00724
0.00726,0.0101,0.01108,0.01179,0.01165,0.50926,0.04612,0.48097,0.00785,0.07406,0.49944,0.00217,0.00491,0.00595,0.01467,0.05774,0.00816,0.00286,0.00474,0.00783,0.00493,0.0079
0.0065,0.00852,0.01014,0.00987,0.01241,0.51053,0.0463,0.58469,0.00841,0.08202,0.46031,0.00159,0.00442,0.00546,0.01581,0.04804,0.00804,0.0027,0.0044,0.00619,0.00495,0.00566
0.00675,0.00775,0.0099,0.0077,0.00514,0.82643,0.00409,0.92808,0.00779,0.03002,0.59145,0.00176,0.00583,0.00605,0.01032,0.05283,0.0081,0.00229,0.0046,0.00568,0.00495,0.00573
0.00646,0.00773,0.00885,0.00505,0.01237,0.58732,0.0462,0.53629,0.00834,0.08217,0.55994,0.00209,0.00573,0.00605,0.01004,0.05397,0.00716,0.00278,0.00517,0.0065,0.00509,0.00642
0.00755,0.0091,0.00929,0.02124,0.00534,1.05941,0.00409,0.77933,0.00771,0.03024,1.26258,0.00196,0.00751,0.00728,0.01363,0.0579,0.00843,0.00323,0.00505,0.00927,0.00628,0.00833
0.00781,0.00879,0.01135,0.01309,0.0122,0.56637,0.04626,0.48607,0.00835,0.08158,0.50501,0.0017,0.00445,0.0057,0.01505,0.04166,0.0073,0.00221,0.00489,0.00594,0.00452,0.00625
0.01427,0.01644,0.02385,0.02192,0.00545,0.93872,0.00407,0.80855,0.00781,0.02971,0.99956,0.00299,0.00981,0.00659,0.01519,0.04239,0.01574,0.00385,0.00612,0.00757,0.00696,0.00683
0.00624,0.00896,0.00835,0.00645,0.01214,1.0501,0.04618,1.08502,0.00816,0.08238,1.13867,0.00221,0.00568,0.00523,0.01314,0.04657,0.00784,0.0029,0.00476,0.00558,0.00523,0.00585
0.01263,0.01787,0.02771,0.01654,0.00549,0.78328,0.00407,0.75317,0.00791,0.02957,0.71011,0.00227,0.0078,0.00794,0.01573,0.05017,0.0139,0.00309,0.00544,0.00864,0.00595,0.00825
0.01118,0.0131,0.01718,0.03663,0.01204,0.89731,0.04622,0.75499,0.00802,0.08139,0.86633,0.00366,0.01033,0.00961,0.02259,0.05088,0.01427,0.00491,0.00714,0.01164,0.00862,0.01213
0.00813,0.01174,0.01195,0.03046,0.00616,0.89585,0.00409,0.91714,0.0082,0.03106,0.86404,0.00225,0.0066,0.0065,0.01752,0.04434,0.01204,0.00343,0.00537,0.00739,0.0064,0.007
0.01478,0.01493,0.02153,0.01168,0.01177,1.18466,0.04622,1.07769,0.00789,0.08088,1.08581,0.00248,0.0073,0.00652,0.0108,0.04833,0.01471,0.00374,0.00591,0.00871,0.00679,0.00779
0.01222,0.0137,0.01655,0.03735,0.00578,0.86069,0.00409,0.93392,0.00818,0.03223,0.83511,0.00252,0.0064,0.00802,0.00846,0.04117,0.01101,0.00286,0.00626,0.0097,0.00601,0.00943
0.01233,0.01844,0.01654,0.03093,0.01187,0.71553,0.04618,0.79423,0.00773,0.0794,0.70513,0.00249,0.00652,0.00931,0.01045,0.05615,0.01363,0.00251,0.00613,0.01123,0.00618,0.01086
0.00969,0.01091,0.01456,0.02768,0.0062,0.72349,0.00429,0.72554,0.00849,0.03406,0.71366,0.00202,0.00646,0.00777,0.01025,0.05562,0.00968,0.00303,0.00589,0.0085,0.00575,0.00813
0.00982,0.01324,0.01101,0.02408,0.0114,0.74796,0.04604,0.77394,0.00761,0.07825,0.60077,0.00219,0.00654,0.00677,0.01807,0.04948,0.01033,0.00309,0.0063,0.0084,0.0065,0.00828
0.01162,0.01415,0.01184,0.01598,0.00625,0.99046,0.00425,1.0462,0.00847,0.03285,0.9432,0.00233,0.0088,0.00704,0.01072,0.04619,0.01295,0.00309,0.00693,0.0072,0.00886,0.00791
0.00789,0.01208,0.00955,0.02046,0.01132,0.89746,0.04598,0.8023,0.00756,0.0785,0.87813,0.00231,0.00738,0.00788,0.01129,0.04005,0.01065,0.00323,0.00474,0.00863,0.00584,0.00877
0.01105,0.01442,0.0183,0.03027,0.00621,0.65115,0.00429,0.59532,0.00841,0.03316,0.6598,0.00207,0.00642,0.00834,0.00918,0.04607,0.01236,0.00309,0.00558,0.01076,0.00618,0.0089
0.01067,0.01118,0.01355,0.02688,0.01142,0.66994,0.04593,0.43144,0.00756,0.07881,0.80174,0.00229,0.00812,0.00732,0.01056,0.04638,0.00995,0.00301,0.00536,0.00944,0.00603,0.00834
0.00844,0.01012,0.01274,0.02988,0.00621,0.5016,0.00441,0.43598,0.00857,0.03295,0.56448,0.00206,0.00695,0.00611,0.01174,0.06058,0.01109,0.00278,0.00517,0.00674,0.00505,0.00679
0.00927,0.00961,0.01411,0.01906,0.01136,0.60743,0.04589,0.60491,0.00744,0.07883,0.54497,0.0018,0.00499,0.00542,0.01112,0.04748,0.00721,0.00176,0.00515,0.00611,0.0054,0.00566
0.00726,0.00824,0.00866,0.01537,0.00643,1.00189,0.00448,0.98843,0.00876,0.03353,0.92493,0.002,0.00604,0.00558,0.00987,0.06052,0.00816,0.00217,0.00458,0.00593,0.00544,0.00566
0.00837,0.00949,0.01242,0.01403,0.01118,0.76256,0.04585,1.08511,0.00744,0.07837,0.56614,0.00202,0.00605,0.00741,0.01102,0.04846,0.00867,0.00286,0.00497,0.00683,0.00558,0.00704
0.0081,0.00986,0.01129,0.00954,0.00641,0.69428,0.00445,1.01706,0.00869,0.0332,0.53542,0.00237,0.00536,0.00707,0.01024,0.04183,0.00742,0.00333,0.00503,0.00863,0.00437,0.00738
0.00701,0.00779,0.00844,0.00631,0.01128,0.95612,0.04587,1.29644,0.0075,0.07807,0.8129,0.01108,0.00634,0.00714,0.01014,0.05252,0.00927,0.00926,0.00489,0.00634,0.00542,0.00613
0.00712,0.00837,0.00847,0.00445,0.00635,0.74548,0.00452,1.25093,0.00859,0.03363,0.57331,0.00582,0.00613,0.00687,0.0116,0.05182,0.00875,0.00799,0.00485,0.00536,0.00581,0.00693
0.00761,0.00832,0.00855,0.0036,0.01132,0.8047,0.04585,0.83891,0.00756,0.0779,0.71665,0.0156,0.00614,0.00593,0.01307,0.05006,0.00863,0.01382,0.00534,0.00648,0.00552,0.00609
0.00709,0.00853,0.0083,0.00526,0.00629,0.67124,0.00445,0.82652,0.00845,0.03347,0.6165,0.02757,0.00448,0.00601,0.01895,0.05148,0.00785,0.0177,0.00538,0.007,0.00544,0.00671
0.00757,0.00922,0.01068,0.00474,0.01161,0.57709,0.04604,0.5823,0.00777,0.07925,1.21515,0.00677,0.00524,0.00667,0.00943,0.04432,0.00929,0.00441,0.00532,0.00747,0.00515,0.00704
0.00802,0.00867,0.0082,0.00462,0.00592,0.65831,0.00417,0.68956,0.00841,0.03334,0.74255,0.0031,0.00556,0.00673,0.01453,0.04046,0.0091,0.00403,0.00644,0.00654,0.00544,0.00712
0.00923,0.00867,0.00886,0.00308,0.01171,0.69666,0.0462,0.96432,0.00765,0.07887,0.90411,0.00239,0.00767,0.00732,0.01145,0.04842,0.00922,0.00266,0.01491,0.00802,0.00546,0.00636
0.00668,0.00707,0.00808,0.012,0.00594,0.79005,0.00407,1.01819,0.00857,0.03345,0.69651,0.00426,0.00453,0.0048,0.01061,0.04742,0.0068,0.00413,0.00624,0.00636,0.00448,0.00593
0.00722,0.00775,0.00773,0.02127,0.01177,0.61369,0.04632,0.72886,0.00752,0.07809,1.68261,0.00708,0.00626,0.00636,0.01149,0.05037,0.00744,0.00636,0.01304,0.00808,0.00464,0.00681
0.00714,0.008,0.00873,0.01272,0.00594,0.67286,0.00406,0.5881,0.00873,0.0342,0.88899,0.00955,0.00597,0.00657,0.01075,0.05018,0.00917,0.0087,0.00594,0.00714,0.00487,0.00703
0.01687,0.01464,0.01228,0.0037,0.01173,0.77276,0.0462,0.91242,0.00742,0.07665,0.67767,0.00238,0.01183,0.00997,0.02291,0.04666,0.01412,0.00351,0.01446,0.00964,0.0054,0.01021
0.00992,0.01138,0.01073,0.00389,0.00584,0.66833,0.00415,0.78737,0.00874,0.03589,1.68056,0.00202,0.00746,0.00656,0.01499,0.05001,0.01157,0.0029,0.0071,0.00658,0.00505,0.00746
0.00764,0.00899,0.01069,0.01178,0.01179,0.67019,0.04616,0.92964,0.0074,0.07505,1.67826,0.00311,0.00648,0.00642,0.01442,0.05209,0.00817,0.00366,0.01402,0.0096,0.00466,0.00818
0.01371,0.01181,0.0091,0.00506,0.006,0.46943,0.00417,0.6899,0.00857,0.03745,1.11273,0.00217,0.01304,0.00999,0.01589,0.04588,0.01336,0.00313,0.02071,0.01215,0.00522,0.01076
0.01571,0.01118,0.00961,0.00927,0.01161,0.66767,0.04608,0.78123,0.00769,0.07455,0.62542,0.00459,0.01303,0.00871,0.01691,0.05786,0.0146,0.00565,0.01197,0.00918,0.0048,0.00774
0.01118,0.01049,0.00834,0.00451,0.00596,0.84263,0.00417,1.29047,0.00837,0.03806,0.5013,0.007,0.00739,0.0066,0.01564,0.05312,0.01177,0.00704,0.00479,0.00842,0.0047,0.00662
0.00756,0.00803,0.00787,0.00839,0.01161,0.56393,0.04618,0.70502,0.00791,0.07373,0.47828,0.00204,0.00498,0.00579,0.01206,0.05051,0.00709,0.00298,0.00495,0.00775,0.00474,0.00691
0.00664,0.00857,0.00855,0.01013,0.00618,0.79663,0.00415,1.18349,0.0083,0.03745,0.82406,0.00264,0.0053,0.00696,0.01151,0.04272,0.00853,0.00354,0.00669,0.00841,0.00493,0.00859
0.00624,0.00623,0.00718,0.00451,0.00759,0.79048,0.01938,1.21104,0.00785,0.04751,1.07737,0.01407,0.00462,0.00476,0.01864,0.05381,0.00625,0.0096,0.00482,0.00517,0.0044,0.005
0.0071,0.01023,0.00908,0.01206,0.0124,0.61397,0.04619,1.28194,0.00834,0.08306,1.20109,0.01647,0.00645,0.00817,0.01363,0.05327,0.00896,0.01703,0.00632,0.01163,0.00493,0.00876
0.00931,0.01127,0.00961,0.01621,0.0053,0.85636,0.00413,1.1151,0.00769,0.02891,1.16742,0.02333,0.00777,0.00908,0.0105,0.04653,0.00994,0.01415,0.01341,0.01094,0.00603,0.01228
0.01166,0.0266,0.00975,0.00609,0.01224,0.65913,0.0462,0.75819,0.00835,0.08238,0.52478,0.0171,0.00916,0.00951,0.01219,0.04226,0.01219,0.01175,0.01846,0.01254,0.00521,0.01893
0.02201,0.0164,0.0106,0.0128,0.00545,0.45047,0.00406,0.64367,0.00783,0.02997,0.83784,0.00638,0.01187,0.01103,0.00957,0.05024,0.01414,0.00608,0.01933,0.01002,0.00591,0.01258
0.00991,0.00859,0.01027,0.00711,0.01216,0.64957,0.04622,1.02268,0.00824,0.08217,1.36668,0.00199,0.00536,0.00637,0.01103,0.0482,0.008,0.0023,0.0074,0.00828,0.00435,0.0093
0.00889,0.01199,0.00725,0.00378,0.00545,0.57566,0.00409,0.87895,0.00779,0.02942,0.85341,0.00204,0.0062,0.00915,0.01149,0.04228,0.00763,0.00233,0.02544,0.01123,0.00487,0.01646
0.01838,0.01832,0.01011,0.00897,0.01206,0.48433,0.04622,0.75349,0.00812,0.0818,0.44126,0.0025,0.01109,0.01222,0.01491,0.04973,0.01339,0.0034,0.02773,0.0159,0.00526,0.02089
0.01588,0.01689,0.00891,0.00963,0.00575,0.59681,0.00396,0.68788,0.00795,0.03055,0.4843,0.00334,0.00873,0.00786,0.01632,0.04775,0.01163,0.00438,0.01216,0.01208,0.00444,0.01379
0.00864,0.01148,0.00894,0.00387,0.0121,0.75269,0.04628,0.93959,0.00806,0.08125,0.59407,0.00567,0.00562,0.00507,0.01628,0.04078,0.00838,0.00606,0.005,0.00557,0.00483,0.00612
0.00595,0.00832,0.00726,0.00659,0.00582,0.55104,0.00409,0.83514,0.00818,0.03117,0.47696,0.00202,0.00452,0.00538,0.01015,0.03928,0.0065,0.00245,0.00448,0.00638,0.00407,0.00654
0.00665,0.00808,0.00861,0.00888,0.01179,0.51264,0.0462,0.81993,0.00781,0.0803,0.43076,0.00485,0.0047,0.00614,0.00951,0.04412,0.00798,0.00467,0.0052,0.00835,0.00458,0.00753
0.00564,0.00755,0.00677,0.00478,0.00619,0.69719,0.00427,1.02592,0.00845,0.03344,0.546,0.0044,0.0052,0.00532,0.01205,0.04038,0.0074,0.00487,0.00485,0.00615,0.00477,0.0066
0.00614,0.00662,0.0062,0.00382,0.01144,0.60353,0.046,0.78568,0.00756,0.07774,0.46372,0.00436,0.00481,0.00476,0.01426,0.04652,0.00636,0.00519,0.00458,0.0054,0.0046,0.00521
0.00743,0.00911,0.00857,0.00708,0.00625,0.62196,0.00429,0.79946,0.00843,0.03371,0.44415,0.00952,0.00515,0.007,0.01054,0.04167,0.0073,0.00718,0.00546,0.00837,0.00454,0.00784
0.0064,0.00707,0.00672,0.00554,0.01126,0.72813,0.046,0.8849,0.00752,0.07843,0.54577,0.00582,0.00472,0.00529,0.0109,0.04748,0.00701,0.0055,0.00468,0.0064,0.00384,0.0063
0.00585,0.00843,0.00757,0.00624,0.00623,0.6824,0.00429,1.222,0.00849,0.03281,0.48548,0.00312,0.00474,0.00562,0.00992,0.0463,0.00667,0.00321,0.00425,0.00644,0.0045,0.00702
0.00644,0.00918,0.00753,0.01548,0.0114,0.35895,0.04597,0.35813,0.00752,0.07876,0.33733,0.00204,0.00542,0.00694,0.00865,0.04359,0.00769,0.00317,0.00491,0.00997,0.00505,0.00804
0.00659,0.00801,0.00753,0.00577,0.00616,0.58838,0.00437,1.03252,0.00855,0.03281,0.47095,0.01096,0.0056,0.00564,0.01025,0.04335,0.00753,0.00952,0.00534,0.00668,0.00487,0.00658
0.00568,0.0063,0.00658,0.00368,0.01134,0.84025,0.04585,1.22596,0.00742,0.07889,0.66065,0.00408,0.00446,0.00472,0.01479,0.04616,0.00667,0.00357,0.00411,0.00476,0.00362,0.00486
0.00614,0.00749,0.00626,0.00637,0.00633,0.59535,0.00448,0.7179,0.00871,0.0333,0.44902,0.00284,0.00595,0.00554,0.01759,0.0447,0.00742,0.00419,0.00483,0.00733,0.00557,0.00644
0.00745,0.00851,0.00863,0.01007,0.01136,0.47987,0.04581,0.44589,0.00734,0.07825,0.40221,0.00417,0.0064,0.00796,0.0157,0.04804,0.0083,0.00577,0.00601,0.00914,0.00544,0.00783
0.0055,0.00756,0.00689,0.00795,0.00639,0.4974,0.00452,0.58527,0.00867,0.03341,0.38274,0.00235,0.00486,0.00578,0.01316,0.04371,0.00664,0.0031,0.00423,0.00795,0.00374,0.00619
0.00622,0.00589,0.00593,0.00355,0.01124,0.6414,0.04583,0.82858,0.00752,0.0785,0.46877,0.00182,0.0039,0.00493,0.01368,0.05425,0.00576,0.00268,0.0044,0.00441,0.00446,0.00491
0.00566,0.00653,0.00628,0.00489,0.00639,0.53418,0.0045,0.64767,0.00857,0.03351,0.3851,0.00194,0.00425,0.00507,0.01038,0.04602,0.0062,0.00247,0.00442,0.00573,0.00431,0.00585
0.00595,0.00742,0.00667,0.01019,0.0112,0.52591,0.04583,0.49478,0.00759,0.0778,0.42556,0.00182,0.00489,0.00601,0.01107,0.05034,0.00708,0.00249,0.00425,0.00759,0.0045,0.00675
0.00575,0.00621,0.00738,0.00502,0.00641,1.12185,0.00446,1.36517,0.00855,0.03367,0.81349,0.00184,0.00485,0.00513,0.01141,0.03867,0.00751,0.00247,0.00446,0.00548,0.00472,0.00548
0.00548,0.00712,0.00675,0.00372,0.0115,0.64625,0.04593,0.92331,0.00767,0.07827,0.50575,0.00147,0.00442,0.00548,0.01244,0.0547,0.00683,0.00221,0.00399,0.00499,0.0045,0.00519
0.00788,0.00986,0.00913,0.01491,0.00604,0.53099,0.00431,0.63364,0.00843,0.03386,0.48255,0.01051,0.0055,0.00751,0.01334,0.04534,0.00958,0.00639,0.0053,0.00972,0.00565,0.00856
0.00636,0.0076,0.0075,0.00679,0.01169,0.8899,0.04616,0.99874,0.00781,0.07915,0.6742,0.00775,0.00517,0.00585,0.01674,0.04294,0.00801,0.00755,0.00489,0.00717,0.00437,0.00713
0.00695,0.00834,0.01363,0.00357,0.00594,0.60662,0.00411,0.73717,0.00851,0.03353,0.50272,0.00433,0.00456,0.00435,0.01257,0.04704,0.00738,0.00468,0.00448,0.00533,0.00448,0.0055
0.00753,0.01049,0.01159,0.00932,0.01177,0.50034,0.0463,0.53185,0.00763,0.07762,0.45405,0.00349,0.00499,0.00643,0.01278,0.04671,0.00933,0.0044,0.00497,0.00843,0.00427,0.00735
