"C3","C4","CZ","EMG","F3","F4","F7","F8","FP1","FP2","FZ","LOG","O1","O2","P3","P4","PZ","ROG","T3","T4","T5","T6"
0.03135,0.0265,0.03065,2e-04,0.0356,0.026,0.0769,0.02305,0.07375,0.06265,0.02955,0.00655,0.03385,0.09755,0.03075,0.03355,0.0291,0.00755,0.0313,0.03865,0.0334,0.054
0.03181,0.03078,0.0303,3e-04,0.03483,0.02603,0.07188,0.02247,0.07397,0.06881,0.02545,0.00743,0.03387,0.15334,0.02975,0.04792,0.03915,0.00799,0.02956,0.03964,0.03802,0.07592
0.03741,0.0361,0.038,3e-04,0.03257,0.03253,0.06681,0.03181,0.07252,0.07089,0.04073,0.00939,0.03897,0.11227,0.0347,0.04759,0.03775,0.01059,0.0364,0.043,0.03924,0.06818
0.03799,0.04063,0.04309,2e-04,0.04131,0.03876,0.06793,0.03521,0.06971,0.0702,0.0359,0.0087,0.03924,0.12526,0.03492,0.05364,0.03964,0.00705,0.03808,0.05011,0.0442,0.06954
0.03284,0.034,0.04017,2e-04,0.04436,0.03204,0.07599,0.02703,0.07635,0.06825,0.03968,0.01124,0.0339,0.10528,0.03272,0.04352,0.0376,0.00969,0.02894,0.04465,0.03392,0.0489
0.03056,0.02612,0.02795,1e-04,0.02612,0.02411,0.06183,0.02569,0.07183,0.05574,0.03405,0.00861,0.03822,0.08643,0.02846,0.03687,0.03439,0.0087,0.02519,0.04302,0.03562,0.05879
0.04955,0.04653,0.05774,3e-04,0.04803,0.04322,0.06411,0.03553,0.08006,0.07478,0.05387,0.01284,0.05674,0.11728,0.04024,0.05443,0.04752,0.01059,0.03948,0.05542,0.05918,0.07654
0.03685,0.03313,0.03559,2e-04,0.03774,0.03112,0.07052,0.02973,0.08065,0.06452,0.03197,0.00761,0.04728,0.12284,0.0371,0.04307,0.03744,0.0097,0.0336,0.04533,0.04845,0.06173
0.03748,0.03357,0.03983,3e-04,0.03569,0.03301,0.05625,0.0284,0.0684,0.06637,0.03231,0.00789,0.04419,0.10366,0.03504,0.04887,0.03999,0.0079,0.02797,0.04093,0.04349,0.05701
0.02994,0.02827,0.02875,2e-04,0.03388,0.02537,0.05173,0.02849,0.06954,0.07288,0.03091,0.00804,0.03462,0.10042,0.03198,0.03589,0.03485,0.00884,0.02539,0.0358,0.03632,0.05514
0.03885,0.03859,0.04024,2e-04,0.04372,0.03733,0.07146,0.03404,0.08935,0.08336,0.0435,0.00824,0.04847,0.19,0.04241,0.05783,0.04892,0.00859,0.03733,0.04848,0.04823,0.09273
0.03804,0.03634,0.04385,2e-04,0.03662,0.03924,0.08391,0.03767,0.0805,0.07282,0.04177,0.00764,0.04629,0.1955,0.03871,0.05789,0.04714,0.00734,0.03644,0.04819,0.04829,0.09721
0.03634,0.03538,0.03787,2e-04,0.03993,0.0345,0.06642,0.03229,0.0746,0.06376,0.03771,0.01004,0.04383,0.19173,0.03789,0.05944,0.04749,0.00839,0.03133,0.04544,0.04174,0.07719
0.03203,0.03393,0.03839,1e-04,0.0359,0.03487,0.05868,0.03051,0.09532,0.06402,0.03499,0.0058,0.03802,0.17096,0.03699,0.05015,0.04129,0.00629,0.03076,0.04758,0.03961,0.06699
0.03021,0.03332,0.03244,1e-04,0.03563,0.03457,0.06589,0.0308,0.06938,0.08242,0.04387,0.00733,0.03874,0.1397,0.03238,0.0473,0.03806,0.00923,0.027,0.05044,0.04065,0.06838
0.03185,0.03587,0.03491,3e-04,0.03538,0.02872,0.07763,0.0308,0.0829,0.05481,0.03377,0.00744,0.03844,0.14765,0.03161,0.05024,0.03369,0.0079,0.03224,0.04915,0.04015,0.07479
0.02531,0.02873,0.02682,2e-04,0.02853,0.03239,0.07759,0.02865,0.07461,0.06772,0.03082,0.00569,0.04154,0.16259,0.02946,0.0503,0.03397,0.00839,0.03021,0.03095,0.0391,0.08307
0.03128,0.02889,0.03048,3e-04,0.03879,0.03891,0.07314,0.04029,0.09842,0.07414,0.0409,0.05423,0.03286,0.13691,0.03305,0.0487,0.03912,0.07139,0.02825,0.0569,0.03125,0.07207
0.03821,0.03889,0.0324,1e-04,0.05729,0.05034,0.07152,0.03915,0.08079,0.12732,0.0629,0.04047,0.04946,0.15723,0.03612,0.04859,0.0418,0.01891,0.04569,0.07223,0.04756,0.10141
0.04414,0.04839,0.04416,3e-04,0.05464,0.04285,0.07801,0.0376,0.09145,0.09669,0.05856,0.0255,0.04775,0.15199,0.04453,0.05724,0.04541,0.01284,0.04468,0.07906,0.05489,0.07531
0.03242,0.03744,0.03522,0,0.04402,0.03516,0.06894,0.03894,0.06801,0.08673,0.04399,0.01183,0.04669,0.14071,0.03367,0.05539,0.03808,0.01106,0.03477,0.0607,0.04417,0.07208
0.04251,0.03694,0.04108,2e-04,0.04872,0.03918,0.08564,0.03349,0.06974,0.08058,0.04727,0.00851,0.05373,0.1458,0.04617,0.05878,0.04669,0.00931,0.04997,0.04975,0.05412,0.07846
0.03951,0.04918,0.04306,2e-04,0.05199,0.0488,0.07233,0.03997,0.0825,0.10065,0.04894,0.00904,0.04737,0.14208,0.04453,0.07099,0.05548,0.01115,0.04685,0.0542,0.05582,0.09219
0.0353,0.03655,0.03772,2e-04,0.03471,0.03459,0.08851,0.02895,0.06336,0.07495,0.03389,0.00745,0.04309,0.12281,0.03812,0.0497,0.04458,0.00831,0.03938,0.05837,0.04198,0.07176
0.04218,0.03343,0.03969,1e-04,0.04417,0.03387,0.06859,0.02849,0.06517,0.08267,0.04172,0.01104,0.05112,0.14161,0.04769,0.0524,0.04197,0.00914,0.038,0.04389,0.05416,0.07271
0.04006,0.04212,0.0362,1e-04,0.03672,0.03722,0.07814,0.03829,0.05758,0.08436,0.04286,0.00646,0.05421,0.14091,0.04854,0.05281,0.04691,0.0086,0.04289,0.05732,0.05212,0.08936
0.04645,0.05176,0.05028,1e-04,0.04318,0.05219,0.07334,0.04509,0.07244,0.11277,0.06306,0.01268,0.05152,0.15245,0.04899,0.05311,0.04923,0.01399,0.04731,0.07474,0.04571,0.0894
0.03353,0.03221,0.0335,2e-04,0.04167,0.03346,0.04947,0.03528,0.07576,0.08996,0.04152,0.00966,0.04001,0.13741,0.03304,0.04542,0.0356,0.00752,0.03079,0.05902,0.03683,0.0722
0.02852,0.02671,0.02592,1e-04,0.03531,0.02732,0.07505,0.03478,0.06663,0.07,0.04006,0.00795,0.03895,0.18979,0.03117,0.04698,0.03648,0.00914,0.0365,0.0587,0.03313,0.09081
0.03994,0.03338,0.04013,0,0.04703,0.03559,0.08063,0.03447,0.07578,0.09635,0.04445,0.00839,0.05014,0.1628,0.04931,0.05433,0.03993,0.01045,0.05193,0.07384,0.05317,0.10955
0.0348,0.02952,0.0401,2e-04,0.04119,0.03578,0.0669,0.03327,0.07798,0.08353,0.03977,0.00729,0.0448,0.14791,0.04,0.04877,0.03775,0.00645,0.03376,0.05742,0.04167,0.0798
0.03467,0.02515,0.03715,2e-04,0.04091,0.02983,0.08008,0.02972,0.07414,0.07067,0.04355,0.00639,0.05377,0.16739,0.042,0.04769,0.04449,0.00868,0.03897,0.04304,0.04581,0.0814
0.03837,0.03523,0.04509,1e-04,0.0441,0.0467,0.06575,0.0506,0.06377,0.09395,0.04967,0.01178,0.04787,0.14909,0.03811,0.05769,0.04777,0.00884,0.03834,0.06022,0.04728,0.07306
0.03649,0.02958,0.03693,2e-04,0.03187,0.04348,0.07723,0.04915,0.07292,0.09517,0.04475,0.00771,0.04854,0.1257,0.03124,0.05334,0.04159,0.00959,0.03379,0.05485,0.04999,0.08432
0.02983,0.02645,0.03038,2e-04,0.02891,0.03342,0.05789,0.0352,0.06636,0.06558,0.03202,0.00609,0.03784,0.08833,0.02666,0.03767,0.03101,0.0079,0.02347,0.03817,0.0399,0.06642
0.03825,0.03878,0.03855,1e-04,0.03414,0.04617,0.07324,0.04803,0.08833,0.09693,0.04431,0.00743,0.04649,0.14034,0.03698,0.06064,0.04071,0.00759,0.03552,0.05999,0.05555,0.07693
0.04434,0.04789,0.04759,2e-04,0.05372,0.04458,0.07472,0.03969,0.07154,0.08703,0.05197,0.00824,0.04698,0.16915,0.03568,0.0643,0.04665,0.00749,0.03348,0.05915,0.05043,0.08883
0.02737,0.02854,0.02829,2e-04,0.03487,0.03487,0.05667,0.0393,0.07376,0.07389,0.04151,0.00639,0.03843,0.1315,0.02633,0.03952,0.02933,0.00779,0.03692,0.0498,0.0417,0.08339
0.03794,0.03104,0.03454,2e-04,0.03862,0.03292,0.06123,0.0313,0.07202,0.06932,0.03676,0.00788,0.03614,0.12546,0.03408,0.04825,0.03625,0.00889,0.03338,0.0405,0.04386,0.06962
0.04274,0.04076,0.05092,1e-04,0.03909,0.03676,0.06451,0.03091,0.08171,0.064,0.03563,0.00764,0.04263,0.13323,0.04312,0.04484,0.05358,0.00739,0.03707,0.04405,0.04377,0.0637
0.03256,0.03125,0.0346,3e-04,0.03675,0.03363,0.06482,0.02905,0.07861,0.06522,0.03758,0.00724,0.04416,0.14937,0.03157,0.05262,0.03692,0.00709,0.03364,0.03902,0.04302,0.07522
0.03156,0.03596,0.03177,2e-04,0.03198,0.02877,0.05217,0.0261,0.07419,0.06653,0.02914,0.00829,0.04142,0.1465,0.03371,0.05291,0.04003,0.00794,0.03712,0.03595,0.04882,0.08733
0.02996,0.02678,0.03111,2e-04,0.03091,0.02374,0.04736,0.02243,0.08797,0.04638,0.0264,0.00619,0.03186,0.13908,0.02662,0.04311,0.03075,0.00719,0.02534,0.02958,0.03164,0.07674
0.03175,0.03493,0.03651,3e-04,0.0283,0.02672,0.04219,0.02731,0.10909,0.06058,0.03098,0.00763,0.03471,0.1415,0.02698,0.04537,0.0377,0.00734,0.03113,0.0386,0.03416,0.06178
0.03431,0.03497,0.03538,2e-04,0.03624,0.02753,0.05776,0.02599,0.0845,0.0615,0.0347,0.00674,0.03307,0.15311,0.02783,0.05798,0.04039,0.00664,0.03031,0.04604,0.03297,0.05841
0.03802,0.03242,0.03693,1e-04,0.04568,0.03334,0.05424,0.02118,0.06722,0.06911,0.04147,0.00783,0.03757,0.15452,0.02879,0.04684,0.036,0.00808,0.0275,0.04343,0.03761,0.05869
0.02919,0.02816,0.03578,0,0.03878,0.03197,0.04957,0.02101,0.08879,0.0596,0.04021,0.00674,0.03514,0.12177,0.02929,0.03628,0.03888,0.00814,0.02459,0.03137,0.03474,0.05854
0.03365,0.02939,0.03568,1e-04,0.03524,0.02971,0.0512,0.02586,0.06664,0.06185,0.0385,0.00628,0.04368,0.13766,0.0314,0.04668,0.03509,0.00844,0.03262,0.03846,0.03587,0.07299
0.03762,0.0298,0.03563,2e-04,0.03403,0.03505,0.05186,0.02908,0.07658,0.08566,0.04114,0.00663,0.03197,0.11859,0.03166,0.04268,0.03593,0.00734,0.03206,0.04204,0.03423,0.07376
0.03824,0.03425,0.03723,2e-04,0.03382,0.04098,0.06791,0.03155,0.08663,0.08738,0.04181,0.01073,0.04096,0.13314,0.03351,0.05746,0.04918,0.01104,0.03686,0.04211,0.03912,0.09767
0.04069,0.04532,0.04579,6e-04,0.04967,0.04695,0.06109,0.03906,0.07268,0.10724,0.05031,0.0114,0.0445,0.20482,0.04032,0.05959,0.04475,0.01206,0.03963,0.05526,0.0451,0.09144
0.0394,0.04238,0.04653,2e-04,0.04585,0.03983,0.08046,0.035,0.08706,0.07249,0.04775,0.01211,0.05267,0.12862,0.0363,0.0397,0.03987,0.01061,0.03815,0.05793,0.05723,0.08456
0.02875,0.02966,0.03613,2e-04,0.03993,0.0337,0.06695,0.02892,0.07454,0.07801,0.03754,0.00746,0.04296,0.10044,0.03203,0.0383,0.0325,0.00815,0.02779,0.04544,0.04159,0.06332
0.02529,0.02795,0.03333,2e-04,0.03155,0.03882,0.08118,0.03274,0.08052,0.11069,0.03434,0.00584,0.04201,0.1241,0.03116,0.04234,0.03191,0.00924,0.03119,0.03993,0.03746,0.06222
0.02748,0.03149,0.03422,1e-04,0.03411,0.03129,0.05876,0.02126,0.07125,0.06645,0.03417,0.00783,0.04411,0.12867,0.03366,0.04631,0.04186,0.0078,0.02891,0.0381,0.03029,0.07596
0.04209,0.04226,0.04927,2e-04,0.04887,0.04176,0.06879,0.04031,0.09621,0.10673,0.05027,0.01059,0.05107,0.15414,0.04682,0.06173,0.05221,0.00944,0.03589,0.06589,0.0481,0.08273
0.05111,0.04276,0.05565,2e-04,0.05374,0.04221,0.05849,0.038,0.11558,0.08853,0.05575,0.01295,0.05296,0.14912,0.05443,0.06121,0.06371,0.0096,0.03383,0.06413,0.05469,0.08046
0.03766,0.03641,0.03963,2e-04,0.04162,0.03566,0.07249,0.02674,0.06958,0.07494,0.03898,0.00826,0.03866,0.1447,0.03517,0.05486,0.03707,0.0094,0.02912,0.05472,0.03332,0.07135
0.03624,0.03683,0.03735,3e-04,0.03961,0.03418,0.05276,0.02633,0.071,0.08412,0.04499,0.00824,0.04809,0.10412,0.03468,0.05037,0.03809,0.00825,0.0317,0.05792,0.04457,0.08316
0.03763,0.03358,0.03939,2e-04,0.04455,0.03487,0.05676,0.02908,0.09475,0.08527,0.04307,0.00839,0.04194,0.13502,0.03562,0.04515,0.03909,0.01099,0.03871,0.03959,0.04787,0.08567
0.04184,0.03872,0.0429,2e-04,0.03897,0.03707,0.05888,0.0321,0.06657,0.06923,0.04682,0.00609,0.04976,0.16238,0.03968,0.05213,0.0496,0.0065,0.03064,0.05515,0.05164,0.08553
0.02911,0.03484,0.03576,2e-04,0.03594,0.03604,0.05689,0.03226,0.08058,0.06265,0.03588,0.00628,0.03605,0.14816,0.03295,0.05281,0.04425,0.00873,0.0307,0.04253,0.03606,0.07638
0.03285,0.03562,0.03643,2e-04,0.03963,0.03353,0.05608,0.02981,0.0787,0.07806,0.03843,0.00698,0.04618,0.14904,0.03566,0.05131,0.03617,0.00819,0.03255,0.04001,0.04268,0.06618
0.03041,0.02718,0.03043,3e-04,0.03195,0.02747,0.04413,0.02635,0.07524,0.05654,0.03354,0.00533,0.03743,0.1322,0.02403,0.04331,0.03223,0.00854,0.02866,0.04305,0.03896,0.07898
0.02345,0.02529,0.02865,3e-04,0.03036,0.03039,0.04387,0.02718,0.08168,0.06173,0.03337,0.00773,0.02804,0.12866,0.02372,0.03892,0.02786,0.01039,0.02644,0.03397,0.02799,0.05979
0.03987,0.04018,0.06929,2e-04,0.03465,0.0392,0.05877,0.02929,0.07281,0.06601,0.03332,0.00724,0.04214,0.15159,0.04077,0.05854,0.04524,0.00815,0.03253,0.03937,0.04374,0.06965
0.0371,0.03605,0.0598,2e-04,0.03152,0.0245,0.04279,0.01995,0.07706,0.05523,0.03092,0.00694,0.03831,0.15446,0.0329,0.05779,0.04323,0.00839,0.02401,0.03545,0.03862,0.06755
0.03994,0.04348,0.0638,2e-04,0.03246,0.03532,0.05616,0.02895,0.07459,0.05928,0.03575,0.00848,0.04024,0.15907,0.03931,0.05589,0.04192,0.00979,0.02522,0.03763,0.03764,0.07264
0.0322,0.03367,0.05607,2e-04,0.02531,0.03008,0.04193,0.02729,0.07672,0.0582,0.03178,0.00664,0.04085,0.1047,0.02985,0.04568,0.03846,0.0073,0.02453,0.03659,0.03394,0.05981
0.03571,0.03717,0.05388,0,0.04233,0.04855,0.05346,0.03214,0.06853,0.07194,0.04991,0.00648,0.04815,0.14482,0.03945,0.05448,0.03939,0.01064,0.03232,0.04028,0.04607,0.0731
0.03168,0.02899,0.04467,2e-04,0.02956,0.02829,0.06417,0.03006,0.06974,0.05731,0.03465,0.00628,0.04259,0.09792,0.0346,0.03637,0.0298,0.00815,0.03571,0.03245,0.04683,0.06077
0.03291,0.02584,0.03572,2e-04,0.03365,0.02779,0.05087,0.02615,0.08935,0.06384,0.03157,0.00668,0.03981,0.09434,0.03557,0.03718,0.0307,0.00729,0.02588,0.02711,0.03258,0.0516
0.03791,0.03358,0.04048,4e-04,0.03257,0.02599,0.05515,0.02198,0.06495,0.05677,0.03161,0.00708,0.04435,0.12987,0.03603,0.04784,0.04125,0.00824,0.03038,0.03679,0.04501,0.06676
0.03319,0.03572,0.04305,3e-04,0.03546,0.03903,0.06408,0.03181,0.09787,0.05718,0.03691,0.00654,0.04207,0.1316,0.03893,0.04494,0.04251,0.00849,0.0327,0.04468,0.04128,0.07153
0.02587,0.03093,0.03387,2e-04,0.02953,0.03165,0.05162,0.03001,0.11079,0.06559,0.02713,0.00613,0.03636,0.13961,0.03079,0.04582,0.03471,0.00869,0.02686,0.04052,0.04066,0.07221
0.03078,0.0279,0.03297,1e-04,0.031,0.03681,0.04231,0.02975,0.10265,0.06393,0.03534,0.00943,0.04053,0.1039,0.0361,0.04468,0.03812,0.00744,0.02918,0.03825,0.04505,0.05271
0.03065,0.02484,0.03651,2e-04,0.0352,0.02818,0.04201,0.0257,0.07856,0.07197,0.03473,0.00805,0.0324,0.09162,0.02508,0.03537,0.03274,0.00754,0.0262,0.03154,0.02933,0.04551
0.0407,0.03942,0.05703,2e-04,0.04068,0.03809,0.06011,0.03028,0.07259,0.07296,0.03802,0.00639,0.04651,0.12211,0.04368,0.05123,0.04486,0.01054,0.03733,0.03356,0.04305,0.06288
0.0428,0.0422,0.05994,2e-04,0.0368,0.02969,0.06425,0.02735,0.08461,0.07321,0.03069,0.00698,0.03368,0.12531,0.03577,0.04741,0.04557,0.0062,0.03119,0.03497,0.02752,0.06331
0.03371,0.03681,0.04225,3e-04,0.04193,0.04005,0.05117,0.03294,0.06757,0.07697,0.0431,0.00613,0.03832,0.10438,0.03448,0.03879,0.03743,0.00738,0.03116,0.03812,0.03409,0.06082
0.03632,0.03883,0.04041,4e-04,0.04371,0.0403,0.07166,0.03956,0.07744,0.08343,0.04907,0.00543,0.04964,0.11577,0.03927,0.04314,0.03659,0.00814,0.06686,0.04549,0.05332,0.0902
0.03173,0.03149,0.04105,3e-04,0.03617,0.0317,0.04851,0.03165,0.05429,0.07242,0.0428,0.00673,0.0324,0.13263,0.0302,0.03832,0.03803,0.00974,0.03053,0.03563,0.03732,0.0741
0.03331,0.02926,0.04206,2e-04,0.03233,0.02486,0.04579,0.02751,0.07292,0.06171,0.03396,0.00798,0.03011,0.13196,0.0285,0.04389,0.03754,0.00605,0.028,0.03703,0.03349,0.06712
0.04447,0.0385,0.04951,1e-04,0.03476,0.03217,0.05663,0.02704,0.07266,0.07446,0.03732,0.00804,0.0443,0.12476,0.03889,0.05147,0.04714,0.00783,0.03009,0.04119,0.04352,0.07264
0.04197,0.03224,0.05305,2e-04,0.04152,0.02956,0.06078,0.03124,0.08261,0.06567,0.03744,0.00884,0.04087,0.12117,0.03784,0.04671,0.03754,0.00774,0.02955,0.03626,0.04382,0.07971
0.03816,0.02906,0.03922,2e-04,0.03306,0.02765,0.0637,0.03131,0.07681,0.06363,0.03629,0.00734,0.0398,0.11506,0.03819,0.04508,0.04079,0.00744,0.03195,0.03513,0.04372,0.0661
0.03109,0.03205,0.042,2e-04,0.03732,0.03054,0.05772,0.03526,0.10748,0.05027,0.03453,0.00759,0.03705,0.11988,0.03209,0.04848,0.04125,0.00719,0.03486,0.03558,0.03712,0.06293
0.03136,0.02661,0.03746,2e-04,0.03154,0.0276,0.05044,0.02538,0.06604,0.05335,0.03017,0.00844,0.03939,0.1357,0.03211,0.04414,0.03711,0.00934,0.03322,0.03208,0.04564,0.05156
0.03851,0.03528,0.04704,3e-04,0.03931,0.03709,0.03715,0.03668,0.07978,0.06327,0.04045,0.01059,0.04315,0.15363,0.03896,0.06137,0.04289,0.00915,0.03747,0.04126,0.04403,0.06186
0.02994,0.02758,0.03394,2e-04,0.0344,0.03124,0.03844,0.03008,0.0705,0.05852,0.0397,0.0117,0.04327,0.12007,0.03309,0.04411,0.03451,0.0114,0.03554,0.03201,0.04307,0.06056
0.03815,0.03729,0.04352,2e-04,0.04062,0.03336,0.04139,0.02995,0.06965,0.06569,0.0353,0.00996,0.04537,0.13155,0.04032,0.05517,0.04052,0.01011,0.03888,0.03396,0.04502,0.07185
0.03629,0.03474,0.04462,2e-04,0.0364,0.04142,0.03386,0.0397,0.06925,0.07168,0.04718,0.01025,0.04018,0.13246,0.03305,0.05248,0.04235,0.01185,0.02994,0.04357,0.04158,0.07131
0.03273,0.03042,0.03837,2e-04,0.03788,0.03181,0.03372,0.02845,0.076,0.06716,0.03729,0.00705,0.03605,0.11566,0.03462,0.04416,0.03051,0.00976,0.0344,0.04017,0.04376,0.06166
0.03246,0.0251,0.03349,2e-04,0.03884,0.03176,0.03577,0.02369,0.07953,0.06634,0.03679,0.00744,0.03493,0.12058,0.03432,0.04317,0.0382,0.00895,0.02772,0.0321,0.04077,0.05616
0.03366,0.02633,0.02957,2e-04,0.02809,0.03026,0.05328,0.02942,0.0544,0.06663,0.02813,0.00574,0.03447,0.1062,0.03502,0.04047,0.03544,0.00594,0.03869,0.03781,0.0415,0.07298
0.03677,0.04063,0.03845,2e-04,0.04389,0.0381,0.06642,0.03315,0.06052,0.08078,0.04264,0.00653,0.03477,0.09053,0.02993,0.0442,0.03528,0.00918,0.03454,0.03549,0.04531,0.06541
0.03658,0.02935,0.04999,2e-04,0.05292,0.03649,0.06838,0.03522,0.08855,0.0651,0.05066,0.00963,0.03657,0.12255,0.0301,0.04612,0.03468,0.00995,0.03197,0.04623,0.03328,0.05993
0.03448,0.03625,0.053,3e-04,0.04101,0.03583,0.06094,0.03468,0.08204,0.07113,0.04035,0.0077,0.02973,0.15151,0.0307,0.05248,0.04227,0.00865,0.02451,0.04153,0.03542,0.06955
0.03697,0.03773,0.04221,3e-04,0.03706,0.02858,0.06395,0.02977,0.06621,0.07071,0.03635,0.00599,0.04165,0.10791,0.0377,0.03821,0.03886,0.00724,0.03232,0.05336,0.04563,0.07215
0.03833,0.03509,0.04581,3e-04,0.04344,0.04254,0.06987,0.03205,0.08268,0.0758,0.05063,0.00763,0.03906,0.13939,0.03879,0.05494,0.04039,0.01024,0.03836,0.04082,0.03498,0.07161
0.04139,0.04408,0.04888,3e-04,0.04922,0.03761,0.06325,0.04006,0.08371,0.08398,0.04865,0.00809,0.04405,0.1362,0.04734,0.04952,0.0432,0.0076,0.03364,0.0388,0.04342,0.07176
0.02776,0.03122,0.03204,3e-04,0.04095,0.03069,0.05352,0.0331,0.08427,0.06852,0.03659,0.00614,0.04092,0.10683,0.03274,0.04395,0.03822,0.00974,0.02137,0.04874,0.03612,0.06311
0.02744,0.02611,0.02716,2e-04,0.03155,0.03105,0.05777,0.02877,0.07327,0.06819,0.03828,0.00643,0.0399,0.10923,0.02791,0.04112,0.02869,0.0095,0.03066,0.03764,0.03583,0.05702
0.02899,0.03228,0.03514,3e-04,0.03806,0.02651,0.05204,0.02849,0.08197,0.05514,0.04074,0.00573,0.04225,0.1358,0.03309,0.04831,0.03504,0.00815,0.0376,0.03909,0.04038,0.05609
0.02619,0.03351,0.03563,5e-04,0.02839,0.03083,0.04416,0.03254,0.07661,0.07558,0.03545,0.00808,0.03316,0.12898,0.02927,0.04164,0.03703,0.00749,0.03609,0.0355,0.0365,0.05873
0.02968,0.03027,0.03173,2e-04,0.02889,0.0282,0.06257,0.03426,0.06043,0.05983,0.03148,0.00729,0.03737,0.14314,0.0327,0.05156,0.03724,0.00779,0.03138,0.03533,0.04093,0.06109
0.03455,0.0348,0.03066,0.00015,0.03309,0.02634,0.06026,0.03187,0.0468,0.05135,0.03141,0.00494,0.03384,0.12967,0.03206,0.04481,0.04134,0.00724,0.03891,0.03493,0.03905,0.07126
0.03777,0.02977,0.0345,5e-05,0.03587,0.03168,0.05085,0.02591,0.06128,0.07156,0.03726,0.00472,0.03447,0.10635,0.02986,0.03972,0.03796,0.00689,0.03834,0.03857,0.03755,0.04886
0.02999,0.0253,0.03052,2e-04,0.03098,0.02911,0.05625,0.03343,0.07716,0.05931,0.03154,0.00682,0.02312,0.06328,0.02555,0.03005,0.03114,0.00683,0.02584,0.03504,0.02779,0.04094
0.036,0.02613,0.03355,2e-04,0.0322,0.0317,0.04893,0.03102,0.07779,0.0564,0.03401,0.00563,0.03007,0.10197,0.03163,0.0418,0.03511,0.00883,0.03483,0.03828,0.03754,0.06335
0.03308,0.03153,0.03927,3e-04,0.03231,0.03181,0.04514,0.02896,0.06349,0.06943,0.03032,0.00833,0.03575,0.12961,0.02856,0.04111,0.03953,0.00779,0.02872,0.03864,0.03709,0.06112
0.03722,0.03031,0.03815,2e-04,0.03281,0.03091,0.05228,0.02874,0.05822,0.0673,0.0377,0.00639,0.03878,0.12205,0.03374,0.04976,0.0434,0.00694,0.03999,0.03894,0.04399,0.08566
0.02719,0.02565,0.02864,2e-04,0.02826,0.02925,0.05211,0.02294,0.05554,0.06099,0.03399,0.00678,0.03489,0.13456,0.02922,0.04345,0.03587,0.00798,0.02725,0.04074,0.03742,0.05443
0.03444,0.03253,0.03299,2e-04,0.03759,0.03105,0.04451,0.03451,0.06163,0.0674,0.03862,0.00618,0.03797,0.13127,0.0326,0.05372,0.03903,0.00839,0.02964,0.0398,0.03624,0.06977
0.04267,0.03301,0.04131,2e-04,0.03924,0.03401,0.06727,0.03502,0.05031,0.05629,0.03799,0.00668,0.03944,0.12461,0.03856,0.05212,0.0452,0.00744,0.0374,0.048,0.03858,0.07395
0.03116,0.03272,0.03516,3e-04,0.04725,0.03572,0.05369,0.03428,0.05375,0.06683,0.03889,0.00858,0.042,0.11342,0.03389,0.04646,0.03698,0.00779,0.03254,0.04259,0.03744,0.07207
0.03156,0.02891,0.04093,1e-04,0.03644,0.03333,0.05992,0.03512,0.06377,0.08148,0.03694,0.00784,0.03986,0.12332,0.02837,0.04653,0.03648,0.00879,0.03071,0.04351,0.03989,0.06506
0.04786,0.03654,0.0642,1e-04,0.05718,0.04212,0.0754,0.03573,0.07507,0.07786,0.04843,0.01159,0.04765,0.18607,0.03954,0.06438,0.04613,0.00899,0.04425,0.06522,0.0465,0.08543
0.03419,0.02913,0.03702,3e-04,0.03984,0.02801,0.06318,0.03283,0.06998,0.06934,0.03444,0.00916,0.04139,0.12013,0.0387,0.03872,0.03573,0.00699,0.03487,0.04088,0.04443,0.06218
0.04147,0.034,0.04264,3e-04,0.0484,0.03614,0.07502,0.02896,0.0641,0.0905,0.05377,0.00865,0.03776,0.0892,0.03484,0.04209,0.03983,0.00678,0.03292,0.03695,0.04252,0.06316
0.03716,0.03667,0.04096,2e-04,0.03939,0.03698,0.07198,0.03629,0.05697,0.09345,0.04427,0.01019,0.04189,0.13495,0.03662,0.05146,0.04355,0.00778,0.03286,0.04688,0.03976,0.08572
0.03679,0.03913,0.03555,2e-04,0.03535,0.03368,0.07186,0.04183,0.08918,0.07142,0.03737,0.0058,0.04186,0.15507,0.04133,0.05321,0.03892,0.00769,0.04086,0.05028,0.0512,0.06923
0.03313,0.0277,0.03423,6e-04,0.03378,0.04007,0.06616,0.03561,0.0725,0.09346,0.03804,0.00628,0.03711,0.16293,0.03201,0.04742,0.03109,0.00819,0.0324,0.0324,0.04246,0.0535
0.03202,0.03064,0.03797,2e-04,0.03152,0.0275,0.07403,0.02663,0.17481,0.06787,0.03134,0.00743,0.03884,0.14416,0.03011,0.04974,0.03541,0.00734,0.03286,0.04326,0.03806,0.06237
0.03801,0.0339,0.03864,2e-04,0.03756,0.03194,0.04747,0.03048,0.06762,0.06429,0.03496,0.00629,0.04949,0.15432,0.03955,0.0588,0.04493,0.00704,0.03781,0.04347,0.04594,0.05706
0.03134,0.02727,0.03144,5e-04,0.03274,0.02911,0.06769,0.0286,0.06694,0.07037,0.03482,0.00598,0.0369,0.11082,0.02985,0.04094,0.03502,0.00844,0.02449,0.03112,0.03663,0.05584
0.03206,0.02664,0.03336,2e-04,0.03466,0.02935,0.05139,0.02644,0.06678,0.0579,0.03202,0.00753,0.04048,0.12805,0.03115,0.0394,0.03943,0.00734,0.02422,0.03276,0.03813,0.04583
0.02806,0.02438,0.02972,2e-04,0.02607,0.0192,0.03436,0.02068,0.05928,0.04989,0.02591,0.00644,0.03525,0.10134,0.02861,0.03855,0.02995,0.00614,0.02737,0.02271,0.03514,0.04598
0.03559,0.02972,0.03625,2e-04,0.03698,0.02655,0.04722,0.0244,0.05135,0.06115,0.03628,0.00738,0.03733,0.07766,0.03129,0.02964,0.0325,0.00853,0.02964,0.02746,0.03373,0.03563
0.02628,0.02305,0.02878,2e-04,0.02818,0.03023,0.03729,0.02707,0.06016,0.05221,0.02858,0.00574,0.03354,0.11739,0.02676,0.0411,0.03371,0.00919,0.03165,0.02479,0.03192,0.04718
0.02413,0.03252,0.04369,0.00015,0.02674,0.0239,0.02914,0.02479,0.07965,0.03891,0.02584,0.00558,0.03162,0.12444,0.02618,0.03296,0.03487,0.00875,0.02546,0.03597,0.03106,0.04609
0.02792,0.02816,0.04472,5e-05,0.02773,0.02622,0.0353,0.02292,0.05845,0.04379,0.02568,0.00448,0.03576,0.13597,0.02438,0.04366,0.03517,0.00819,0.02693,0.03833,0.03631,0.05268
0.03099,0.03764,0.04402,2e-04,0.03339,0.03263,0.03373,0.03396,0.06794,0.05207,0.03083,0.00617,0.03863,0.12863,0.03277,0.04482,0.04628,0.00714,0.03578,0.04179,0.04008,0.05901
0.0391,0.03309,0.04297,3e-04,0.03512,0.03391,0.09507,0.03842,0.06999,0.04791,0.03685,0.00603,0.03904,0.15359,0.03851,0.04877,0.03828,0.00679,0.11548,0.06961,0.05205,0.06525
0.08965,0.05767,0.06536,2e-04,0.05698,0.05182,0.25708,0.05389,0.0665,0.08589,0.05258,0.00783,0.1123,0.18052,0.07229,0.06804,0.06829,0.00893,0.54518,0.09415,0.30231,0.12873
0.04305,0.03499,0.04548,3e-04,0.04068,0.03621,0.04504,0.03182,0.08378,0.06828,0.04141,0.00644,0.04751,0.1063,0.04096,0.04309,0.04069,0.00754,0.06778,0.04672,0.05916,0.06784
0.03407,0.03612,0.03623,2e-04,0.0296,0.03088,0.04878,0.03181,0.07627,0.06309,0.03511,0.00593,0.03999,0.11973,0.03425,0.04497,0.0364,0.00564,0.03524,0.04473,0.0394,0.07504
0.03727,0.03283,0.04123,2e-04,0.03655,0.02815,0.05129,0.03101,0.06323,0.05797,0.03428,0.00683,0.0427,0.14005,0.03687,0.05122,0.04058,0.00918,0.03693,0.04597,0.0456,0.06783
0.03194,0.02951,0.03396,3e-04,0.03118,0.02979,0.04876,0.02931,0.06532,0.04974,0.03002,0.00613,0.03661,0.13005,0.03173,0.04386,0.0361,0.009,0.03183,0.03078,0.03878,0.07034
0.03791,0.03215,0.03642,3e-04,0.03571,0.0313,0.06164,0.02855,0.06978,0.07195,0.03575,0.00598,0.04293,0.14955,0.03606,0.04522,0.03943,0.00879,0.04346,0.04115,0.04574,0.08295
0.01775,0.01255,0.0348,0,0.0187,0.02025,0.0092,0.0205,0.25005,0.02425,0.01565,0.00685,0.02095,0.0138,0.03865,0.00965,0.01065,0.0045,0.03705,0.13755,0.01505,0.0163
0.01379,0.01611,0.02267,0,0.01439,0.011,0.00705,0.00885,0.0137,0.01082,0.01293,0.00408,0.0191,0.01247,0.01519,0.01465,0.0171,0.00472,0.01229,0.91034,0.01818,0.01043
0.01202,0.01083,0.01201,0,0.01102,0.01061,0.00789,0.00679,0.01182,0.0083,0.01191,0.00477,0.0201,0.01276,0.01303,0.01287,0.01384,0.00457,0.01296,0.8521,0.01934,0.01255
0.01071,0.00855,0.01261,0,0.01131,0.00925,0.00724,0.00703,0.01271,0.01054,0.01126,0.00307,0.0066,0.00571,0.00862,0.00606,0.01027,0.00327,0.00706,7.66561,0.0062,0.00601
0.01335,0.01309,0.01331,0,0.01156,0.0097,0.00764,0.00784,0.01081,0.0088,0.01051,0.00397,0.01888,0.01303,0.01479,0.01123,0.0147,0.00377,0.01184,16.22938,0.01658,0.00973
0.01212,0.01252,0.01377,0,0.01206,0.0103,0.00914,0.00764,0.0134,0.01044,0.0137,0.00407,0.01664,0.01277,0.01327,0.01071,0.01097,0.00367,0.00981,11.63775,0.01563,0.0081
0.00916,0.01126,0.01167,0,0.00946,0.0098,0.007,0.00649,0.01107,0.00945,0.01017,0.00317,0.01748,0.01266,0.01052,0.0109,0.01145,0.00382,0.008,19.39719,0.01683,0.01014
0.0142,0.01126,0.01596,0,0.0106,0.00985,0.01058,0.00748,0.01151,0.0091,0.0113,0.00472,0.01929,0.01336,0.0149,0.0114,0.01461,0.00477,0.01354,4.90989,0.01978,0.0101
0.01207,0.01251,0.02133,0,0.01955,0.01455,0.0066,0.00619,0.01036,0.01255,0.01766,0.00537,0.00655,0.00672,0.00827,0.00931,0.01287,0.00332,0.00617,16.48465,0.00635,0.00555
0.01601,0.01806,0.03101,0,0.02245,0.02112,0.00983,0.00883,0.0115,0.01466,0.02179,0.00643,0.01963,0.01318,0.01189,0.01285,0.01546,0.00482,0.01133,1.53017,0.01723,0.01013
0.01368,0.01114,0.01491,0,0.01156,0.01166,0.00815,0.00704,0.01016,0.00947,0.01116,0.00378,0.02095,0.01257,0.01606,0.01091,0.01503,0.00407,0.01261,0.2096,0.01844,0.00965
0.02002,0.01831,0.02877,0,0.02026,0.01671,0.01019,0.00834,0.01195,0.01335,0.01796,0.00577,0.02035,0.01421,0.01633,0.01515,0.01903,0.00502,0.01466,0.05875,0.01874,0.01195
0.01765,0.01469,0.01769,0,0.01445,0.00973,0.0102,0.00719,0.01121,0.00817,0.01164,0.00548,0.0205,0.01347,0.01708,0.01358,0.01705,0.00393,0.01377,0.02964,0.02064,0.01186
0.01144,0.01277,0.01214,0,0.01317,0.0093,0.00755,0.00679,0.00901,0.01084,0.01216,0.00448,0.01545,0.01067,0.01164,0.01197,0.01089,0.00372,0.01017,0.02685,0.0151,0.00971
0.01206,0.01331,0.02106,0,0.01032,0.01135,0.00749,0.00578,0.01125,0.00805,0.01171,0.00357,0.01103,0.0099,0.01016,0.01061,0.01325,0.00407,0.00885,0.02158,0.01043,0.0081
0.01481,0.01432,0.02431,0,0.01205,0.01021,0.00764,0.00638,0.01011,0.00854,0.01111,0.00362,0.01721,0.01285,0.0127,0.0139,0.01597,0.00407,0.01059,0.02016,0.01685,0.01004
0.01167,0.01172,0.01532,0,0.01066,0.00935,0.00709,0.00748,0.01385,0.01014,0.01191,0.00487,0.01829,0.01306,0.01271,0.01187,0.01203,0.00532,0.0123,0.01935,0.01863,0.01275
0.01261,0.01171,0.01493,0,0.011,0.01145,0.00854,0.00669,0.01792,0.0101,0.01251,0.00397,0.01984,0.01352,0.01366,0.01071,0.01276,0.00458,0.01376,0.02195,0.01889,0.01176
0.00926,0.01121,0.01367,0,0.01156,0.01056,0.01079,0.00808,0.01889,0.011,0.01236,0.00562,0.0201,0.01332,0.01262,0.0118,0.01216,0.00577,0.01467,0.02101,0.02014,0.01191
0.0133,0.01276,0.01622,0,0.01281,0.01085,0.0103,0.00709,0.01399,0.00986,0.01011,0.00473,0.01715,0.01327,0.01341,0.01381,0.01526,0.00398,0.01262,0.02111,0.0183,0.01106
0.01777,0.01791,0.02608,0,0.01216,0.0132,0.0088,0.00869,0.01242,0.0117,0.01435,0.00417,0.02264,0.01437,0.01742,0.01437,0.02183,0.00552,0.01361,0.02031,0.02149,0.01161
0.01419,0.01414,0.02413,0,0.01171,0.01292,0.00694,0.00829,0.01156,0.01246,0.01397,0.00387,0.00686,0.00782,0.01064,0.01072,0.01501,0.00348,0.00642,0.0163,0.00786,0.00556
0.01332,0.01417,0.01832,0,0.01501,0.01491,0.00768,0.02749,0.01191,0.01276,0.01222,0.00427,0.02258,0.01529,0.01335,0.01425,0.01378,0.00407,0.01278,0.01623,0.02249,0.01248
0.01702,0.01552,0.02919,0,0.01948,0.01352,0.01059,0.00724,0.01601,0.01206,0.01571,0.00542,0.02071,0.01443,0.01562,0.01397,0.01687,0.00457,0.01431,0.01683,0.01866,0.01061
0.02544,0.01908,0.04595,0,0.02825,0.02122,0.01185,0.01034,0.01303,0.02476,0.02973,0.00913,0.0204,0.01657,0.01878,0.01357,0.02708,0.00822,0.01537,0.01758,0.01824,0.01135
0.00943,0.0145,0.01438,0,0.01034,0.00841,0.00956,0.00695,0.01312,0.00832,0.01085,0.00435,0.0213,0.01278,0.01239,0.01222,0.01304,0.00414,0.01348,0.01614,0.01794,0.01091
0.02205,0.02487,0.04862,0,0.02355,0.02004,0.0111,0.00963,0.01292,0.01669,0.02375,0.00622,0.02051,0.01626,0.01641,0.01656,0.02207,0.00552,0.01402,0.01603,0.01769,0.01235
0.02581,0.02882,0.04779,0,0.04647,0.04,0.01491,0.0128,0.01071,0.03193,0.05237,0.00683,0.01995,0.01858,0.01858,0.01888,0.02011,0.00418,0.01697,0.01293,0.02079,0.01286
0.01873,0.01499,0.02129,0,0.01788,0.01445,0.00972,0.00861,0.01055,0.01351,0.01786,0.00493,0.0179,0.01229,0.01174,0.01164,0.01295,0.00462,0.01338,0.01626,0.01805,0.01206
0.01464,0.01557,0.01636,0,0.01284,0.01137,0.008,0.01029,0.0119,0.01152,0.01514,0.00367,0.02419,0.01806,0.01616,0.01336,0.01581,0.00432,0.01437,0.01563,0.02339,0.01281
0.01712,0.01223,0.01613,0,0.01491,0.01226,0.01024,0.00715,0.01581,0.01046,0.01283,0.00472,0.02182,0.01344,0.01563,0.01187,0.01463,0.00327,0.01392,0.01393,0.02072,0.01291
0.01119,0.00986,0.01308,0,0.00977,0.01081,0.008,0.00724,0.01318,0.0111,0.01131,0.00417,0.01906,0.01252,0.01173,0.01021,0.01187,0.00482,0.00977,0.01272,0.0192,0.00991
0.00966,0.01115,0.01287,0,0.0128,0.0131,0.00789,0.00844,0.01117,0.00911,0.01256,0.00417,0.007,0.00746,0.00921,0.0094,0.01196,0.00327,0.0074,0.01056,0.007,0.00745
0.01075,0.00961,0.01541,0,0.01066,0.01107,0.00774,0.00609,0.01161,0.01,0.01216,0.00392,0.01338,0.00999,0.01135,0.00955,0.01126,0.00332,0.01169,0.01055,0.01453,0.00729
0.01145,0.0137,0.01733,0,0.0106,0.01256,0.00839,0.00753,0.01151,0.0105,0.01216,0.00377,0.01937,0.0124,0.01176,0.00965,0.01326,0.00442,0.01246,0.00905,0.01852,0.00934
0.01371,0.01077,0.01899,0,0.0127,0.01206,0.01029,0.00654,0.01341,0.0106,0.01226,0.00462,0.02175,0.01301,0.01511,0.0112,0.01312,0.00327,0.01306,0.0119,0.02034,0.0116
0.01697,0.01985,0.02684,0,0.01841,0.01566,0.0098,0.01028,0.01447,0.013,0.01656,0.00447,0.02316,0.01667,0.01483,0.01691,0.01837,0.00467,0.01452,0.00971,0.0201,0.01301
0.01348,0.00995,0.01403,0,0.01279,0.00943,0.0083,0.00805,0.01502,0.00932,0.01053,0.00337,0.02077,0.01088,0.01352,0.00998,0.01599,0.00487,0.01462,0.011,0.02035,0.01072
0.01197,0.01235,0.01777,0,0.01021,0.0096,0.00739,0.00794,0.01078,0.00895,0.0115,0.00392,0.0191,0.0116,0.01387,0.0138,0.01558,0.00397,0.01287,0.011,0.01775,0.01055
0.01511,0.01391,0.01994,0,0.0111,0.01135,0.00649,0.00599,0.0156,0.00934,0.01061,0.00417,0.0094,0.00931,0.01207,0.01212,0.01733,0.00312,0.00746,0.01251,0.00819,0.0065
0.01073,0.00962,0.01555,0,0.01156,0.00956,0.00833,0.00688,0.01123,0.00945,0.0114,0.00402,0.0197,0.01155,0.01161,0.01076,0.01369,0.00447,0.01079,0.01001,0.01619,0.00968
0.00845,0.01095,0.01523,0,0.01116,0.01095,0.00824,0.00848,0.01521,0.0105,0.01251,0.00407,0.0208,0.01416,0.01341,0.0115,0.01597,0.00437,0.01215,0.0117,0.02048,0.0104
0.01124,0.0106,0.01598,0,0.01241,0.01055,0.00819,0.00724,0.01308,0.00965,0.01241,0.00422,0.01615,0.01237,0.01067,0.01131,0.01543,0.00442,0.01086,0.00851,0.0171,0.0101
0.01356,0.01525,0.01853,0,0.01401,0.0102,0.01129,0.00899,0.01817,0.0099,0.01126,0.00577,0.01653,0.01236,0.01215,0.01311,0.01438,0.00402,0.01305,0.01079,0.01584,0.0107
0.01662,0.01638,0.02314,0,0.01137,0.0122,0.00896,0.00789,0.00979,0.01,0.01201,0.00383,0.02013,0.01251,0.01521,0.01147,0.01747,0.00462,0.01142,0.0095,0.01823,0.0096
0.01798,0.01568,0.02582,0,0.01706,0.01281,0.00999,0.00764,0.01055,0.0125,0.01376,0.00477,0.0201,0.01486,0.01708,0.01456,0.01744,0.00587,0.01276,0.2893,0.01829,0.01145
0.01214,0.01253,0.01863,0,0.01449,0.01251,0.00815,0.00684,0.0174,0.01091,0.01362,0.00457,0.00815,0.00807,0.00949,0.00962,0.01159,0.00363,0.00756,0.15845,0.00729,0.00651
0.01616,0.01626,0.02714,0,0.01582,0.01456,0.00864,0.00818,0.00999,0.01135,0.01412,0.00397,0.01774,0.01209,0.01475,0.01285,0.02161,0.00467,0.01229,0.06034,0.01809,0.00993
0.01793,0.01608,0.02584,0,0.01218,0.01232,0.01104,0.00839,0.00815,0.00996,0.01412,0.00482,0.01874,0.01256,0.01542,0.01431,0.02021,0.00422,0.01256,0.0116,0.01954,0.0093
0.01684,0.01388,0.02098,0,0.01381,0.01256,0.00936,0.00869,0.01179,0.009,0.01257,0.00447,0.01994,0.01381,0.01688,0.01302,0.01805,0.00457,0.01456,0.01251,0.02055,0.0114
0.01263,0.01467,0.0209,0,0.01387,0.01226,0.0092,0.00914,0.01121,0.01189,0.01321,0.00417,0.02075,0.01077,0.01323,0.01242,0.01489,0.00492,0.01257,0.01101,0.01875,0.01026
0.01451,0.01657,0.02385,0,0.01412,0.01456,0.00865,0.00905,0.01001,0.01056,0.01372,0.00412,0.0188,0.01105,0.01412,0.01171,0.01527,0.00492,0.01241,0.01166,0.01474,0.01175
0.01332,0.01288,0.01612,0,0.01227,0.00992,0.00754,0.007,0.0102,0.0099,0.01357,0.00347,0.01629,0.01501,0.01352,0.01131,0.01523,0.00372,0.00796,0.00991,0.01297,0.01196
0.01632,0.01111,0.02013,0,0.01301,0.0107,0.00799,0.00813,0.0159,0.01195,0.01342,0.00452,0.02913,0.02093,0.01602,0.01426,0.01668,0.00407,0.01314,0.0091,0.02416,0.01501
0.02103,0.01801,0.0271,0,0.01502,0.0165,0.01029,0.00744,0.01288,0.01411,0.01477,0.00577,0.0242,0.0157,0.01743,0.01597,0.02233,0.00542,0.01452,0.0083,0.02127,0.01588
0.01486,0.01279,0.01814,0,0.01103,0.00833,0.00925,0.00899,0.00966,0.00947,0.01222,0.00513,0.02017,0.01348,0.01469,0.01118,0.01601,0.00348,0.01287,0.01149,0.02061,0.01083
0.01802,0.01936,0.03084,0,0.01881,0.01874,0.0107,0.00964,0.01155,0.01555,0.01891,0.00563,0.01875,0.01147,0.01402,0.01356,0.01878,0.00542,0.01191,0.01006,0.0178,0.01075
0.00984,0.01295,0.015,0,0.01254,0.01164,0.00785,0.0075,0.01116,0.00978,0.01104,0.00453,0.01849,0.01186,0.01322,0.01017,0.01139,0.00403,0.01181,0.01195,0.01689,0.01025
0.0127,0.01231,0.01993,0,0.01131,0.01291,0.00729,0.00674,0.01076,0.01,0.01336,0.00382,0.00689,0.00806,0.01012,0.01145,0.01331,0.00347,0.00591,0.01081,0.00713,0.0059
0.01351,0.01311,0.0202,0,0.01381,0.01156,0.00879,0.00763,0.00985,0.0104,0.01487,0.00607,0.01708,0.01429,0.01245,0.01371,0.01562,0.00422,0.01083,0.0104,0.01819,0.01223
0.01687,0.01892,0.03595,0,0.02357,0.02256,0.00809,0.00839,0.0137,0.018,0.02557,0.00638,0.01904,0.01527,0.01406,0.01577,0.01993,0.00502,0.0124,0.00975,0.01619,0.01141
0.01533,0.01299,0.02303,0,0.01622,0.01226,0.01079,0.00884,0.01387,0.01294,0.01603,0.00493,0.01995,0.01343,0.01317,0.01128,0.01495,0.00478,0.01356,0.00995,0.01873,0.01086
0.01573,0.01411,0.02192,0,0.01528,0.01426,0.00955,0.01204,0.01817,0.01971,0.01953,0.00672,0.019,0.01502,0.01477,0.01536,0.01882,0.00477,0.01357,0.01205,0.02249,0.01245
0.02333,0.02512,0.04271,0,0.02398,0.02287,0.00625,0.01111,0.01234,0.02365,0.0268,0.00833,0.00949,0.01043,0.01432,0.01733,0.02519,0.00807,0.01122,0.01256,0.01346,0.00911
0.01502,0.01658,0.03071,0,0.02052,0.01606,0.00663,0.00986,0.02176,0.02202,0.02113,0.00519,0.01815,0.0132,0.01152,0.01544,0.01688,0.00529,0.01136,0.01406,0.01822,0.0106
0.01268,0.01058,0.01655,0,0.01295,0.01058,0.00713,0.0078,0.01481,0.00871,0.01336,0.00368,0.01869,0.01122,0.01321,0.01148,0.01508,0.00393,0.01251,0.01317,0.01859,0.0098
0.01846,0.01485,0.02448,0,0.01821,0.0132,0.00934,0.00834,0.01582,0.01094,0.01652,0.00612,0.01974,0.01321,0.01782,0.01546,0.02208,0.00492,0.01436,0.01012,0.01999,0.00995
0.01474,0.01367,0.01942,0,0.01964,0.01492,0.00835,0.01179,0.01143,0.0371,0.02358,0.00903,0.0169,0.01222,0.01799,0.01453,0.01746,0.00807,0.01202,0.01035,0.0167,0.0113
0.01477,0.01477,0.0238,0,0.02315,0.02222,0.00864,0.01236,0.01136,0.05779,0.03337,0.00715,0.01178,0.01311,0.01694,0.01617,0.02029,0.00654,0.00841,0.01285,0.01113,0.01296
0.01377,0.01292,0.02057,0,0.01832,0.01641,0.00939,0.00866,0.01256,0.02719,0.01987,0.00704,0.02201,0.01577,0.01633,0.01438,0.01795,0.00573,0.01154,0.01341,0.01996,0.01536
0.01492,0.01431,0.02115,0,0.01169,0.01383,0.0079,0.00824,0.01416,0.01849,0.01675,0.00819,0.02251,0.01498,0.01738,0.01427,0.01914,0.00618,0.01331,0.01177,0.02025,0.01438
0.00992,0.01122,0.01541,0,0.01361,0.01287,0.00594,0.00719,0.01267,0.01174,0.01473,0.00379,0.02046,0.01247,0.01204,0.01072,0.01365,0.00428,0.01112,0.01431,0.01715,0.01157
0.0154,0.01426,0.02073,0,0.01412,0.01296,0.00978,0.00834,0.03016,0.01091,0.01327,0.00382,0.01705,0.01316,0.01436,0.0129,0.01782,0.00342,0.01156,0.01182,0.01594,0.01231
0.02023,0.01612,0.0309,0,0.01972,0.01601,0.009,0.00939,0.01565,0.01345,0.01927,0.00517,0.01014,0.00967,0.01272,0.01081,0.01964,0.00472,0.00941,0.00941,0.01063,0.00836
0.02825,0.02553,0.0458,0,0.0222,0.01968,0.01329,0.00975,0.00963,0.01767,0.0225,0.00583,0.01975,0.0159,0.01916,0.01735,0.0243,0.00542,0.0137,0.0093,0.01795,0.01254
0.01824,0.01553,0.02573,0,0.01811,0.01485,0.00972,0.0107,0.0117,0.01364,0.01631,0.00538,0.0209,0.01233,0.01645,0.01364,0.01472,0.00583,0.01562,0.0094,0.02104,0.01316
0.02334,0.01908,0.03108,0,0.01844,0.01747,0.0128,0.01195,0.01151,0.01337,0.01743,0.00473,0.0212,0.01706,0.01798,0.01842,0.01972,0.00603,0.01413,0.0079,0.01941,0.01287
0.07017,0.05505,0.05361,0,0.05474,0.05399,0.06731,0.03236,0.01226,0.06577,0.06259,0.00807,0.11551,0.15059,0.08434,0.08139,0.05945,0.00693,0.27582,0.01054,0.17035,0.19006
0.1313,0.09878,0.10717,0,0.11987,0.10182,0.18829,0.08791,0.01221,0.11488,0.11356,0.01384,0.29023,0.2365,0.16502,0.14356,0.1324,0.00858,0.43823,0.01185,0.5576,0.2428
0.03701,0.02649,0.03449,0,0.0292,0.02801,0.03474,0.02924,0.01056,0.02747,0.02977,0.00612,0.05055,0.03863,0.03913,0.03082,0.03611,0.00659,0.04069,0.00781,0.05254,0.04086
0.02209,0.01388,0.01987,0,0.02,0.01214,0.01927,0.0129,0.01395,0.01384,0.0152,0.00448,0.02555,0.01684,0.01965,0.01325,0.01503,0.00423,0.0197,0.00669,0.02621,0.0174
0.02421,0.01632,0.03245,0,0.0241,0.01881,0.0235,0.01461,0.01142,0.01722,0.01763,0.00547,0.02778,0.02508,0.0216,0.01792,0.02548,0.00497,0.0241,0.00818,0.03068,0.02449
0.01492,0.01503,0.01876,0,0.01647,0.01429,0.01242,0.01042,0.01061,0.01404,0.01699,0.00443,0.02219,0.01653,0.01666,0.01379,0.01808,0.00487,0.01632,0.00974,0.02115,0.01472
0.02222,0.01803,0.02609,0,0.01673,0.01407,0.01151,0.01015,0.0105,0.01357,0.01438,0.00537,0.02606,0.01768,0.02023,0.01677,0.02044,0.00412,0.01688,0.00715,0.02431,0.01407
0.02391,0.01719,0.02278,0,0.02093,0.01772,0.01726,0.01235,0.011,0.01422,0.02012,0.00568,0.03303,0.02374,0.02305,0.01803,0.01985,0.00517,0.02228,0.00919,0.03177,0.01922
0.01852,0.01594,0.02346,0,0.02005,0.01724,0.01629,0.01126,0.01151,0.01302,0.01765,0.00518,0.02577,0.01822,0.01887,0.01559,0.0192,0.00433,0.02046,0.01035,0.02641,0.0181
0.01469,0.01333,0.01802,0,0.015,0.01199,0.00948,0.00816,0.02466,0.01192,0.01489,0.00433,0.02238,0.01569,0.01514,0.01328,0.0141,0.00437,0.01475,0.0083,0.02143,0.01434
0.01307,0.01227,0.01859,0,0.01378,0.01176,0.0076,0.00679,0.01062,0.01041,0.01342,0.00442,0.00936,0.00853,0.00978,0.00922,0.01267,0.00282,0.00817,0.01004,0.00906,0.00617
0.01492,0.01316,0.01989,0,0.01422,0.01111,0.01194,0.00843,0.01095,0.0108,0.01272,0.00422,0.0211,0.01384,0.01495,0.01135,0.01466,0.00331,0.01454,0.0082,0.0203,0.01178
0.01117,0.01167,0.0148,0,0.01207,0.00981,0.00846,0.00749,0.01245,0.0106,0.01461,0.00377,0.02056,0.01172,0.01347,0.00961,0.01197,0.00427,0.01432,0.01104,0.01935,0.01041
