"C3","C4","CZ","EMG","F3","F4","F7","F8","FP1","FP2","FZ","LOG","O1","O2","P3","P4","PZ","ROG","T3","T4","T5","T6"
1.61275,1.48566,1.84951,0.11486,1.19705,1.26014,0.94305,1.02207,1.18633,1.46559,1.73086,1.0375,1.90936,1.27213,1.38623,1.66004,1.61725,0.72713,0.65813,0.56861,0.73605,0.63492
1.39729,1.46407,1.69142,0.12743,0.89525,1.0917,0.63995,0.8003,0.69505,0.98849,1.32803,0.34449,1.31726,1.11352,1.18921,1.56736,1.42035,0.37019,0.6567,0.62715,0.83601,0.84944
1.51716,1.56057,1.39053,0.11263,0.9005,1.35651,0.63148,0.86168,0.66263,0.98381,1.20591,0.34104,1.59986,1.11559,1.4149,1.62093,1.35059,0.32699,0.76966,0.54316,0.89243,0.74291
2.09843,2.40731,2.65434,0.10682,1.93168,2.56611,0.95127,1.28573,1.19075,1.83796,2.1529,0.41217,2.45879,1.4922,2.98149,2.68383,2.85617,0.49271,0.94228,0.91714,1.69852,1.20922
2.23634,2.464,2.8978,0.11939,1.67981,1.85247,1.26846,1.64068,1.46559,1.72531,2.33958,1.03137,3.39191,2.3903,2.41137,2.18302,2.26464,1.09852,1.14063,1.31874,1.66103,1.28133
2.28353,2.24032,3.05304,0.11271,1.55,1.73071,1.09781,0.98324,1.14292,1.48523,2.19324,0.58844,2.01387,1.57574,1.80477,2.74932,2.36872,0.46855,0.85514,0.80138,1.39649,1.16776
2.08364,2.19111,2.71831,0.10463,1.51811,1.60457,0.84873,0.99762,1.09631,1.4338,2.19954,0.41875,2.18958,2.06679,1.89626,3.1133,3.0639,0.45504,0.68171,0.83588,0.74283,1.11855
1.76729,1.39244,1.51578,0.10446,1.12638,1.63716,0.64949,1.17142,0.94972,1.24184,1.71834,0.34982,1.83973,1.54058,2.16888,1.4986,1.70956,0.45872,0.59881,0.66722,0.92225,0.81025
2.05443,1.45637,1.60278,0.09538,0.87107,1.2154,0.58601,0.84711,0.89426,1.19946,1.31834,0.36959,1.74314,1.54289,2.31428,1.68349,2.12553,0.42439,0.53084,0.49863,1.07614,0.72297
1.54895,1.98595,2.02106,0.11509,1.21231,1.49116,0.90327,1.15078,0.9944,1.30305,1.72761,0.41066,2.43655,2.20114,1.84749,3.14296,2.31253,0.52126,1.16633,5.26058,1.65163,1.53643
1.07642,1.2004,1.2033,0.12446,1.06194,1.46739,0.92128,1.12461,0.89661,1.22321,1.40974,0.45041,1.42992,1.26143,1.3265,1.68219,1.62061,0.51408,0.98693,0.88291,0.92231,0.99281
1.64308,1.35295,1.26999,0.11608,0.77563,1.13708,0.56176,0.71958,0.70921,0.94493,1.1865,0.28033,0.95613,0.85127,1.56242,1.36774,1.4335,0.34251,0.51921,0.54643,0.59532,0.65739
1.16592,1.2518,1.30303,0.11958,1.00644,1.16365,0.72305,0.7401,0.73316,0.97866,1.29638,0.26465,1.04144,1.0491,1.30178,1.08218,1.03749,0.3517,0.71264,0.60933,1.0563,0.68878
2.02831,2.20088,1.94788,0.11492,2.57958,3.16669,1.12462,1.36322,1.20911,1.685,2.69945,0.49362,1.25344,1.19697,1.61711,1.53942,1.52523,0.41055,0.73202,0.80041,1.26347,0.73449
1.5374,1.46633,1.53802,0.10325,1.57764,1.59341,0.92731,0.83303,1.07187,1.29069,1.73963,0.46003,0.90565,0.93017,1.32915,1.30021,1.42251,0.34522,0.62631,0.61236,0.69856,0.75009
1.31103,1.39904,1.5366,0.10481,1.04273,1.10923,0.55257,0.76049,0.83582,1.01852,1.56871,0.30029,1.12829,1.02738,1.40842,1.40736,1.27985,0.39747,0.63185,0.5209,0.84726,0.80691
1.42746,1.44053,1.62384,0.10163,0.90684,1.04955,0.6428,0.81275,0.93189,1.08701,1.49662,0.46453,1.06492,0.85914,1.42724,1.22947,1.36932,0.50849,0.88787,0.63785,1.46292,0.77562
1.25468,1.15936,1.29403,0.12758,0.87533,1.30926,0.72829,1.10135,0.84688,1.2054,1.37382,0.41811,1.2937,1.25428,1.43146,1.40228,1.46793,0.43779,0.67584,0.73712,1.32042,0.86937
1.31612,1.22012,1.68432,0.1366,0.97649,1.04863,0.71183,1.03721,0.98509,1.06577,1.37757,0.36675,1.22436,1.09975,1.09869,1.26627,1.43095,0.43761,0.5462,0.70839,0.72193,0.68412
1.63687,1.64982,1.97356,0.11546,0.99501,1.33785,1.0467,1.0716,1.0605,1.53976,1.4265,1.07601,1.44638,1.05492,1.51691,1.76855,1.91195,0.57652,0.63753,0.7223,0.7411,0.78376
1.193,1.27768,1.5093,0.1287,0.97536,1.10925,0.91882,1.21561,0.86295,0.96879,1.34052,0.56105,1.13103,0.96958,1.1505,1.6374,1.39766,0.5614,0.72888,0.94788,0.94791,0.94071
1.21622,1.46287,1.60506,0.11168,0.89687,1.26363,0.94974,1.03823,1.31458,1.35972,1.47754,0.51621,1.44365,1.47592,1.29947,1.8024,1.64339,0.60145,0.43449,0.74439,0.84808,1.00096
1.48728,1.28137,1.75308,0.1066,0.99093,1.14952,0.72602,0.88894,0.88665,1.15488,1.52931,0.46163,1.11852,0.97265,1.45203,1.41868,1.53229,0.46317,0.62768,0.58327,0.76537,0.81983
3.13826,2.43682,3.88321,0.12023,2.21295,2.10492,1.10335,1.3382,1.65076,1.71563,3.1959,0.8793,2.2748,1.9043,2.64067,2.90941,2.97198,0.70508,1.15478,0.96458,1.51233,1.24691
1.73277,1.75679,1.7859,0.12561,1.34253,1.37962,0.95255,0.74367,1.20545,1.23941,1.83456,0.73543,1.91368,1.71034,1.61289,2.59719,1.82327,0.3763,0.65052,0.70272,1.36161,1.54456
1.32016,1.29308,1.49441,0.10673,1.04077,1.1659,0.62854,0.8138,1.00089,1.16252,1.4771,0.33032,1.54288,1.62227,1.53344,1.97117,1.60854,0.32927,0.47221,0.58368,0.78076,1.15946
1.47992,1.24596,1.73202,0.10587,1.03727,1.06388,0.59873,0.71641,0.86473,0.96459,1.44277,0.32557,1.6696,1.60975,1.21801,1.57047,1.52435,0.3475,0.55813,0.43083,0.53947,0.80283
1.19818,1.20993,1.2311,0.11056,1.19578,1.28731,0.69496,0.79605,1.04737,1.21042,1.52075,0.36306,1.3957,1.41684,1.53627,1.56791,1.5087,0.34646,0.53974,0.52078,0.62848,0.72114
1.57945,1.85855,1.68967,0.10807,1.95903,3.37292,0.86913,1.29517,1.35572,2.36887,3.04272,0.35962,1.40987,1.42191,1.86644,1.67437,1.80906,0.46894,0.6081,0.6132,0.98248,0.72797
1.83982,1.5548,1.80762,0.11236,1.90439,2.01956,1.01885,0.97792,1.45734,1.91859,2.51116,0.40584,2.14291,1.53159,2.26185,1.86856,2.10504,0.41281,0.7049,0.61979,1.58754,0.84431
1.50092,1.38282,1.39283,0.11776,1.21489,1.53527,0.7499,1.00582,1.00005,1.46119,1.65754,0.31642,1.54174,1.22828,1.59205,1.69076,1.69315,0.44469,0.6594,0.70471,0.87511,0.86751
1.15213,1.13797,1.2267,0.09345,0.75565,1.06624,0.49645,0.70833,0.59814,0.85401,1.10718,0.21243,1.11221,0.81552,1.25899,1.36983,1.53631,0.33915,0.48082,0.50237,0.63815,0.62017
1.06579,0.96402,1.19964,0.10807,0.87521,0.98732,0.66408,0.65832,0.67621,0.8255,1.09109,0.27407,0.70704,0.72548,1.12006,1.02703,0.99741,0.30877,0.51166,0.51489,0.59812,0.68426
1.43655,1.08192,1.55476,0.12039,0.89136,0.92919,0.75647,0.7533,0.79882,0.86784,1.04946,0.32763,1.39523,1.36691,1.61803,1.37052,1.55771,0.30082,0.60989,0.54688,1.11513,0.77874
1.66329,1.74649,1.78239,0.17043,1.07758,1.21971,0.74976,0.78462,0.92484,1.04925,1.58512,0.36744,1.99581,1.6931,1.76017,1.83775,2.04986,0.34838,0.65648,0.59302,1.24249,0.93306
1.91602,1.55814,2.62375,0.11986,1.19441,1.46016,0.73652,0.83052,0.94058,1.23064,1.81513,0.35562,1.6187,1.35508,1.53539,1.78281,1.85568,0.39763,0.50771,0.58842,0.6284,1.0628
1.14765,1.33429,1.46516,0.11986,0.86071,0.89092,0.67107,0.66445,0.67098,0.84512,1.2687,0.28831,1.00685,0.93106,0.97069,1.7001,1.30362,0.33197,0.60615,0.65168,0.60345,0.90784
1.1215,0.9261,1.11649,0.14475,0.69139,0.84594,0.48354,0.63657,0.65819,0.85735,1.1633,0.20548,1.02083,0.96717,0.91061,0.91773,1.06887,0.25893,0.47736,0.52016,0.83745,0.56656
3.12451,3.21652,3.32788,2.06458,2.65809,3.44773,1.54829,2.10765,4.7122,6.86402,3.66626,0.4463,1.98951,1.61322,2.47266,2.28564,2.09761,0.59892,1.25656,1.82859,2.08667,1.52882
5.09981,4.64658,4.34341,6.56122,17.71216,25.11418,14.75627,15.42246,300.46776,241.25046,42.00406,3.68782,3.90389,2.55372,4.1543,4.28105,4.15074,2.14521,2.49062,7.31728,3.1356,2.57666
2.9768,4.13851,3.69641,1.23449,5.04168,11.63233,5.99835,18.63459,41.87265,59.10504,5.64126,1.17921,2.83548,2.26885,3.54386,3.66467,3.2332,1.31776,1.95151,9.84365,2.20191,2.87419
3.2748,3.37717,3.33652,1.82341,4.91348,6.86569,3.90132,5.78778,47.28376,37.0746,5.74856,0.64873,2.70966,2.76402,3.27106,4.817,3.97053,0.76216,1.32731,4.30132,2.64432,3.11815
3.5319,3.36556,3.70956,37.31969,3.59833,4.63693,3.3016,5.60457,19.1779,11.88716,3.98478,0.57888,2.04748,1.89475,3.14026,3.253,3.11428,0.58299,1.65398,4.21754,2.00089,2.6063
2.49672,2.55978,2.7235,0.58889,2.80283,2.91242,1.64393,2.18841,4.74689,3.76988,3.11085,0.69572,1.62119,1.95702,2.18619,4.08725,2.79116,0.54342,1.18378,1.8306,0.99287,2.09624
1.85579,2.18662,2.22022,0.25519,1.42354,1.85274,0.85921,1.4657,1.56652,1.76305,1.84412,0.31577,1.74918,1.25111,1.69388,1.98322,1.90783,0.45647,0.87704,1.33861,1.02336,1.20902
1.79146,2.03749,2.06824,0.33595,1.93882,1.62586,1.03963,1.43294,1.72294,1.71395,1.98491,0.33019,1.76392,1.7303,2.01479,2.67194,2.19328,0.38011,0.83835,1.23855,1.69633,1.38379
1.89871,1.8289,1.8814,0.26302,1.73945,2.39665,0.97004,1.67477,1.32387,1.99673,2.2497,0.41475,1.5079,1.17486,1.79067,1.34479,1.19432,0.44686,0.93564,1.20412,0.97638,0.89979
1.97105,1.8391,1.79201,0.28338,1.28137,1.56042,0.78959,1.07917,1.21845,1.39861,1.8324,0.38233,1.27127,1.03395,2.02221,1.73479,1.59559,0.3512,0.76278,1.03737,0.94671,1.09014
2.54067,2.51576,2.42666,0.26122,3.02967,2.91109,1.40652,1.46465,2.08881,2.57408,3.33438,0.47084,1.13426,1.12026,2.10799,1.62413,1.48659,0.45686,1.0504,1.00998,0.97068,0.9573
1.49584,1.94085,1.65931,0.23153,2.07125,2.07791,1.09874,1.04462,1.48398,1.74442,2.11132,0.39531,1.24556,1.14156,1.44408,1.61216,1.60829,0.4346,0.8435,0.71961,0.71654,0.7779
1.40714,1.43824,1.4823,0.18776,1.41951,1.205,0.84068,0.89964,1.0137,1.1097,1.51846,0.32347,1.1628,1.29891,1.34815,1.75743,1.54082,0.28843,0.76171,0.88234,1.24765,1.07017
1.23142,1.23951,1.54586,0.32074,0.75396,1.1586,0.56617,1.03865,0.71387,1.03109,1.25134,0.29579,1.13571,1.22763,1.17888,1.43617,1.46129,0.31617,0.63659,0.94071,0.95232,0.92904
1.64867,1.33225,1.84855,0.19762,0.92284,0.9483,0.59236,0.69502,0.67766,0.87906,1.35438,0.27435,1.39118,1.03791,1.469,1.46091,1.57649,0.29659,0.79589,0.78195,0.84309,0.82078
1.68109,1.50633,1.88488,0.13154,1.32344,1.25732,0.65102,0.78884,0.92468,1.08758,1.84099,0.27759,1.14225,1.02076,1.35293,1.23406,1.51322,0.39525,0.59493,2.69741,0.62766,0.69297
1.47662,1.41794,1.68933,0.43492,1.06217,1.29751,0.58174,0.90926,1.0961,1.27628,1.83914,0.44734,0.83575,0.98483,1.48837,1.52188,1.59188,0.40538,0.67663,0.80929,0.81912,0.94764
1.72009,1.40072,1.92076,0.22458,1.01332,1.28095,0.6978,1.13131,0.82726,1.05605,1.42381,0.34048,1.37767,1.15935,1.5366,1.38639,1.64493,0.50733,0.77269,0.86033,1.30226,0.85173
1.35334,1.81479,2.17256,0.1471,1.26678,1.59949,0.6216,0.9525,1.02683,1.32827,1.91499,0.26723,1.22228,1.2859,1.16425,1.52784,1.38767,0.39794,0.57217,0.71383,1.03508,0.83686
1.5153,1.95602,2.08461,0.11788,1.33861,1.75432,0.56364,0.92596,0.98757,1.2232,2.03599,0.25455,1.36278,1.38489,1.30891,1.67197,1.34277,0.39023,0.50147,0.64096,0.67351,0.89915
1.08521,1.38722,1.41987,0.11474,0.79386,1.38362,0.47692,0.68185,0.69263,0.98747,1.3553,0.21255,1.0359,1.05269,1.28506,1.26672,1.49149,0.28498,0.37766,0.47037,0.53229,0.62308
1.50259,1.2216,1.59777,0.12944,1.25989,1.41921,0.75986,1.10405,0.80948,1.01441,1.54235,0.27555,1.07099,1.07645,1.42655,1.32574,1.23953,0.58669,0.88287,0.67135,0.76907,0.81594
1.42752,1.35412,1.62244,0.15471,1.08434,1.23777,0.8685,1.31376,0.99058,1.2414,1.44944,0.76909,1.45024,1.23837,1.44193,1.37612,1.49404,0.54757,0.80534,0.83141,1.08207,0.88411
1.47277,1.53423,1.95969,0.13077,1.15698,1.47007,0.99513,1.74091,1.28215,1.54938,1.80992,1.04553,2.21469,1.74256,1.68168,1.75943,1.80813,0.72177,0.67886,0.84563,1.17178,1.01497
1.89659,1.35977,1.87357,0.10363,0.97923,0.93131,0.59552,1.0582,0.89758,1.11531,1.3034,0.57146,1.28977,1.13508,1.92959,1.69943,1.68879,0.54442,0.74074,0.64663,1.04448,0.77155
1.24742,1.87031,1.64522,0.11938,1.23953,1.00356,1.27907,0.81355,0.80365,0.83155,1.28889,0.64434,1.17758,1.32423,1.20785,2.00324,1.55646,0.37341,1.02475,0.81283,0.76067,1.06248
1.60103,1.21291,1.62167,0.10732,1.11859,1.01251,0.85621,0.80456,0.91522,1.03541,1.34398,0.4246,1.07742,0.94862,1.45519,1.32075,1.52193,0.37034,0.70753,0.59649,0.95598,0.80319
1.13561,1.04618,1.20784,0.129,0.72177,0.83834,0.55747,0.66952,0.61028,0.78966,1.00313,0.29944,1.02791,0.82084,1.24642,1.07602,1.26502,0.34045,0.5074,0.48159,0.81476,0.59462
1.66439,1.6805,2.01572,0.1051,0.89196,1.15713,0.76199,0.84512,0.85607,1.07279,1.26946,0.56517,1.48888,1.15551,1.81661,1.71921,1.90597,0.43807,0.63533,0.56557,0.89101,0.75751
1.3122,1.41111,1.64376,0.11981,1.12766,1.18908,0.69838,0.88396,0.90189,1.22879,1.63603,0.43843,1.29332,1.01987,1.39113,1.64326,1.43644,0.50004,0.5462,0.4947,0.95598,0.73318
1.49338,1.52067,1.76552,0.12246,1.48519,1.39549,0.86074,0.86669,1.12815,1.11412,1.63337,0.59445,1.64635,1.48914,1.59274,1.98102,1.76251,0.47607,1.09913,0.69458,1.63534,1.04315
2.3361,1.95908,2.46472,0.09723,1.30644,1.71608,0.75309,0.90378,0.94992,1.3237,1.97682,0.44509,2.62431,1.64699,2.47452,2.03955,2.38985,0.3765,0.82527,0.75143,1.50894,1.05214
2.05118,1.83767,2.01706,0.10275,2.76722,1.76107,1.13665,1.01647,2.25836,1.41944,2.00646,0.53296,3.25233,1.82115,1.94364,2.04129,1.99338,0.50812,0.87821,0.89592,1.14076,0.90497
1.9394,1.47964,1.75992,0.10688,1.1164,1.46451,0.63226,0.87017,0.97353,1.17414,1.61654,0.39424,1.5736,1.26197,2.48139,1.57547,1.83159,0.41078,0.72816,0.7282,1.07772,0.87817
1.52226,1.00521,1.42705,0.10798,1.1306,1.06657,0.80317,0.85127,0.89018,0.99663,1.51394,0.36509,1.57147,1.43422,1.36625,1.48761,1.2317,0.3808,0.87218,0.82386,1.25009,1.24201
1.45415,1.19239,1.52328,0.10687,1.06625,1.5112,0.70969,1.00401,0.93977,1.35171,1.603,0.3804,2.03803,1.57757,1.73052,1.64189,1.64938,0.44916,0.77979,0.5488,1.51053,1.03536
1.25643,1.24831,1.1802,0.11601,1.27685,1.15932,0.80846,0.77311,0.95416,0.9241,1.4835,0.3182,1.87513,1.86388,1.3224,1.7253,1.14383,0.36476,0.74658,0.59301,0.77106,0.99009
1.06497,0.76564,0.88912,0.11101,0.56302,0.59902,0.42599,0.51692,0.50524,0.62614,0.8046,0.19384,0.74534,0.817,1.21569,0.99366,0.94229,0.26599,0.53115,0.4568,0.64457,0.58484
0.99386,0.98435,1.0015,0.1075,1.28653,0.97719,0.80007,0.63372,1.28507,0.99648,1.27845,0.36874,0.82466,0.85154,1.06136,0.96641,0.99088,0.31737,0.65533,0.48828,0.68831,0.54267
1.37542,1.19757,1.30584,0.12058,1.04259,1.00423,0.64361,0.72589,0.74437,0.89415,1.14433,0.30166,1.63364,1.626,1.34446,1.37687,1.3202,0.3338,0.67855,0.6481,1.29269,0.96624
2.45157,2.49703,3.17564,0.40809,1.57042,2.24927,0.83926,1.13261,1.32462,1.786,2.78589,0.37543,2.82827,1.93681,1.86446,2.47724,2.51752,0.56298,1.14629,0.84148,1.21272,1.00433
1.97299,1.8855,2.19671,0.14318,1.38387,1.69137,0.91332,1.01893,0.99579,1.33273,1.90269,0.48407,1.6474,1.43755,1.95993,2.12507,1.93695,0.49206,1.07281,0.93293,1.4503,1.26663
1.42284,0.91894,1.43618,0.10856,1.15858,0.93487,0.69628,0.57185,0.89585,0.84938,1.39034,0.37989,1.03292,1.20412,1.24812,1.40157,1.31794,0.29139,0.79159,0.59684,0.6658,0.74251
1.3512,1.33906,1.56241,0.14158,0.98404,1.20853,0.60243,0.82075,0.75206,0.9693,1.29941,0.3017,2.19272,2.10655,1.18617,1.25205,1.48877,0.37366,0.58035,0.60878,0.99812,0.68686
3.0459,2.59332,3.53307,0.72352,2.07118,2.7197,1.22106,1.91315,1.91159,2.21283,2.79094,0.68534,2.76051,2.33562,2.68544,2.70727,2.73379,0.68882,1.25055,1.56802,2.18236,1.37908
1.92915,1.97508,2.04102,0.30188,0.88883,1.97225,0.85531,1.86594,0.95557,1.67657,1.71477,0.44273,2.11486,1.60821,1.89786,2.5299,2.48292,0.70701,0.83957,1.49687,1.29936,1.36047
1.74338,1.84552,2.28703,0.17871,1.62244,1.87131,0.90118,1.10648,1.29167,1.4856,1.86013,0.36643,1.51813,1.26388,1.80203,2.30064,2.51516,0.47941,0.95383,0.97892,1.21535,0.90652
0.83007,0.74419,0.8897,0.15383,0.77333,0.77528,0.51026,0.54839,0.70869,0.78591,1.03686,0.27421,0.96832,0.6586,1.01686,0.80481,0.96417,0.28355,0.39177,0.42701,0.51132,0.47562
1.15652,1.34032,1.51807,0.13469,1.11686,1.37589,0.62613,0.82621,0.97799,1.30757,1.74132,0.29393,1.32367,1.25508,1.17527,1.31659,1.24321,0.32735,0.51469,0.56556,0.85459,0.63275
1.37036,1.61176,1.86656,0.14661,1.18826,1.30193,0.66888,0.79761,0.80404,1.08966,1.7203,0.24481,1.2535,1.20751,1.49241,1.69681,1.79344,0.32699,0.57198,0.76726,1.0247,0.92231
1.3708,1.45737,1.75536,0.11202,1.0181,1.1337,1.09021,0.86339,0.86245,1.08189,1.34176,0.66878,1.35639,1.42066,1.55006,1.66011,1.78774,0.35212,0.85786,0.70249,0.8488,0.8727
1.52408,1.45042,1.8906,0.10784,1.02146,1.11552,0.8508,0.9338,0.86067,1.14459,1.52639,0.5356,1.2904,1.40565,1.41496,1.53799,1.66988,0.41891,0.79656,0.70297,0.8107,0.81586
1.49452,1.30402,1.78932,0.11242,0.76826,0.95954,0.67578,0.90909,0.75289,0.9302,1.50245,0.83124,1.65072,1.69542,1.50919,1.84578,1.88816,0.63498,0.74617,0.69973,1.2976,0.98902
1.50518,1.60046,1.81853,0.13129,1.09838,1.41305,0.67618,1.17957,0.80245,1.23207,1.72678,0.41528,1.42563,1.33425,1.47347,1.42443,1.63527,0.5039,0.68253,0.69869,1.23367,0.78703
1.23939,1.53652,1.50931,0.11819,1.13103,1.46255,0.66954,0.90637,0.90872,1.1937,1.61345,0.31853,1.26169,1.31487,1.28717,1.74839,1.33796,0.40856,0.6243,0.70592,0.897,0.94021
1.24414,1.14286,1.42408,0.10949,0.92084,0.86372,0.5974,0.64072,0.77658,0.85075,1.16841,0.37457,1.30135,0.9019,1.40886,1.37677,1.25974,0.34982,0.58888,0.53273,0.88408,0.6641
0.99046,1.13448,1.35237,0.10697,0.71865,0.88182,0.50248,0.6494,0.67792,0.81531,1.20806,0.25645,0.94836,0.83168,0.89597,1.10788,1.10107,0.28057,0.5057,0.48165,0.66313,0.6038
1.236,1.18317,1.54166,0.10462,0.79427,1.00698,0.62932,0.67328,0.67545,0.86487,1.18343,0.26222,1.31189,1.12395,1.16443,1.30566,1.31819,0.32293,0.64663,0.55481,0.95692,0.80659
1.56605,1.42214,1.98518,0.11755,1.40106,1.1523,0.69164,0.74194,0.98827,1.01239,1.65395,0.33936,1.36412,0.97075,1.19518,1.16462,1.12736,0.32227,0.65126,0.52526,0.69382,0.72597
1.33931,1.09705,1.35319,0.09621,0.71955,0.87147,0.51086,0.797,0.63394,0.76747,1.03432,0.28545,1.15569,0.90772,1.30147,1.16392,1.21915,0.41077,0.60268,0.63511,0.73419,0.61827
1.3491,1.11378,1.53233,0.11384,0.76322,0.92877,0.60828,0.75554,0.90573,0.9364,1.21659,0.44245,1.3288,1.15375,1.40963,1.34462,1.46592,0.33121,0.50042,0.46382,0.90501,0.65349
1.54666,1.25858,1.42686,0.12815,0.99075,1.13166,0.60769,0.71202,0.81982,1.00466,1.39003,0.3036,1.67945,1.47309,1.44646,1.39309,1.69718,0.30971,0.55815,0.57499,1.43767,0.79698
0.98546,1.06465,1.26636,0.10927,0.83617,0.97094,0.49994,0.61969,0.83934,0.86696,1.29334,0.2663,1.00857,1.01356,0.96757,1.0196,1.08443,0.25894,0.44275,0.45815,0.55964,0.59556
1.36265,1.35757,1.7914,0.11002,0.71585,0.96317,0.55561,0.65234,0.6349,0.89056,1.1735,0.28415,1.08773,1.04348,1.42414,1.67168,1.68714,0.29217,0.4569,0.5789,0.64678,0.78802
1.02514,1.02082,1.05809,0.11531,0.6695,0.97756,0.59878,0.91127,0.67979,0.96418,1.07352,0.301,1.06214,1.08196,1.34436,1.37332,1.2865,0.51358,0.52007,0.61064,0.6549,0.73681
1.22856,1.16852,1.40761,0.11134,0.72285,0.86103,0.56465,0.67971,0.77469,0.87872,1.12901,0.2527,1.26733,1.17797,1.21095,1.55227,1.3262,0.31169,0.45467,0.52428,0.66485,0.71302
1.09158,1.28215,1.25556,0.1091,0.77977,1.15696,0.77393,1.00131,0.90292,1.21802,1.30525,1.20354,1.02435,0.94867,1.10365,1.22489,1.3023,0.7118,0.50444,0.52223,0.54886,0.67881
1.47129,1.36096,1.76583,0.11666,0.96377,1.16412,0.7713,1.04449,1.05413,1.27906,1.47776,0.60571,1.52126,1.24722,1.40641,1.49526,1.65264,0.59045,0.61655,0.62891,0.90021,0.79855
2.07908,1.49901,2.04019,0.10851,1.65772,1.26438,0.97209,0.91511,1.34679,1.39668,2.11115,0.5981,1.79854,1.37648,1.72595,2.21983,1.7545,0.43883,0.68251,0.69513,1.29363,1.05146
1.75312,1.35045,1.516,0.10496,1.07195,1.13331,0.64873,0.71466,0.88202,1.17454,1.60807,0.33716,0.96994,0.91956,1.48362,1.53332,1.38716,0.34717,0.5704,0.63073,0.70903,0.98768
1.54432,1.39438,1.2887,0.11136,1.10485,1.17647,0.725,0.94425,0.9678,1.14725,1.37902,0.38128,1.32043,0.92562,1.69553,1.3946,1.26722,0.40019,0.70348,0.5918,0.86904,0.70119
1.28224,1.03962,1.44031,0.12082,0.84499,0.95226,0.61468,0.8037,0.8332,1.01765,1.16556,0.35086,0.9376,0.92206,1.20218,1.09126,1.21656,0.43787,0.63079,0.48711,0.87263,0.55074
1.51159,1.48016,1.72574,0.1391,1.19337,1.2276,0.66515,0.83196,1.09122,1.14085,1.54085,0.37281,1.20054,1.28979,1.24666,1.78369,1.66195,0.3825,0.60953,0.65492,1.42122,0.87676
1.21899,1.13943,1.31788,0.1199,0.71749,0.92548,0.5056,0.68957,0.60334,0.7699,0.99332,0.24741,1.33424,1.03816,1.16831,1.26731,1.40606,0.32243,0.47359,0.53563,0.79834,0.7297
1.12199,0.90041,1.2499,0.10719,0.67806,0.68417,0.49966,0.59471,0.66057,0.74762,0.94757,0.26562,1.2713,1.13086,1.0922,1.13083,1.42122,0.2753,0.52544,0.43316,0.62019,0.5766
1.35616,1.12822,1.39916,0.10353,0.88023,1.32989,0.59926,0.92864,0.72543,0.91267,1.22228,0.34126,1.72787,1.24127,1.22627,1.4566,1.3984,0.43073,0.50032,0.6912,0.60371,0.79884
0.99032,0.99748,1.1451,0.10401,0.73344,0.82041,0.51797,0.6307,0.65349,0.79446,0.99307,0.3116,1.15119,1.12535,1.02318,1.26181,1.38722,0.38113,0.47318,0.58133,0.66288,0.88916
1.52373,1.48757,1.87679,0.12831,1.59579,1.66434,0.79949,0.97567,1.13358,1.32309,1.68381,0.47069,1.90631,1.33353,1.80329,1.54254,2.02941,0.54291,0.7354,0.64088,1.51387,0.78392
2.0244,1.18037,1.38095,0.1056,0.94923,1.12245,0.63478,0.79726,1.10579,1.3069,1.28495,0.3908,1.03517,1.03061,1.4101,1.43342,1.24006,0.50809,0.68233,0.68746,0.69886,0.92636
1.21224,1.01811,1.41981,0.11224,0.86689,1.21137,0.63118,0.71556,1.01341,1.3814,1.39048,0.42965,0.91179,0.77285,1.07914,1.18846,1.37541,0.4783,0.52112,0.49494,0.51705,0.659
0.84026,1.04048,1.11785,0.12055,0.62829,1.0109,0.6416,0.88808,0.68788,0.9466,1.06565,0.35769,0.79205,0.69288,0.91107,1.16591,1.00511,0.58523,0.58815,0.70677,0.87306,0.64459
1.80936,1.48104,2.10074,0.17422,2.11691,1.73738,1.00506,0.94232,1.80312,1.37882,2.62804,0.4423,1.45655,1.30467,1.45951,1.37534,1.72616,0.45925,0.61013,0.66667,1.21184,0.78239
2.07914,1.90328,2.08813,0.26089,1.53427,2.00058,0.90284,1.29147,1.41549,1.69056,2.60494,0.53051,2.35357,1.97034,3.33994,3.08142,3.25575,0.63537,1.13773,0.95177,2.04315,1.52786
1.9123,1.23516,1.71939,0.1785,1.50554,1.32701,0.96436,0.89475,1.21886,1.37432,1.8053,0.48861,2.03897,1.43387,1.83957,1.68076,1.92232,0.50649,0.85068,0.652,0.94928,0.94062
1.41883,1.0429,1.19461,0.12047,0.71286,0.76189,0.53255,0.56147,0.61799,0.78147,0.98108,0.27103,1.15744,0.76241,1.76287,1.08762,1.43957,0.40034,0.61113,0.43293,0.79484,0.5083
1.55611,1.88381,1.95468,0.11744,1.36561,1.67748,0.75149,0.81026,1.08789,1.20782,1.56668,0.39686,1.29238,0.94583,1.57268,1.6489,1.55664,0.42,0.53481,0.61647,0.81405,0.68777
1.14548,1.25688,1.47702,0.18359,0.72571,0.88087,0.51914,0.85195,0.70869,0.9873,1.21449,0.28654,1.05893,0.90095,1.25176,1.40076,1.39357,0.46365,0.46589,0.69263,1.0828,0.80529
1.12968,1.25525,1.51982,0.14102,0.89431,1.08606,0.7841,0.70041,3.82508,1.26583,1.45977,0.41495,0.91037,0.94703,1.00864,1.30545,1.17885,0.37958,0.53165,0.56385,0.75079,0.72474
1.15824,1.2605,1.46143,0.12256,0.80821,1.00946,0.5545,0.81547,0.74519,0.92927,1.31486,0.26812,1.29469,1.00978,1.24617,1.38044,1.59236,0.46844,0.39951,0.60393,0.54002,0.70276
1.38572,1.25475,1.61262,0.1028,0.88588,1.1632,0.74585,1.07308,1.06362,1.40295,1.40765,0.50853,0.98714,0.90861,1.44198,1.56594,1.35473,0.69095,0.59189,0.61036,0.75504,0.95067
1.47687,1.30026,1.7918,0.10963,1.01648,1.08989,0.8406,0.80401,1.00786,1.36301,1.7639,0.49527,1.36117,1.23265,1.43354,1.91558,1.76093,0.5102,0.68286,0.64043,1.14784,0.88221
1.13501,1.47672,1.33502,0.12039,1.00527,1.34242,0.88809,0.76085,0.85697,1.00645,1.48643,0.52124,1.34424,1.17682,1.21001,1.72853,1.6485,0.41035,0.50737,0.60969,0.81699,0.80334
1.03073,1.14511,1.21235,0.09494,0.70511,0.95346,0.60527,0.89973,0.69974,0.80228,1.01652,0.48996,1.33792,0.8547,1.14199,1.15179,1.19679,0.51016,0.56644,0.55846,0.61654,0.62487
2.47766,1.2778,1.78004,0.11317,1.37755,1.20608,0.75065,0.72779,1.07943,1.14809,1.73165,0.40031,1.32857,1.08384,1.61575,1.2626,1.44107,0.42449,0.64152,0.43443,0.58894,0.65694
1.57084,1.83728,1.74383,0.1112,1.01851,1.73654,0.7274,1.13125,1.02517,1.43556,1.87989,0.43791,1.56912,1.15841,1.7421,1.72516,1.42985,0.48872,0.58602,0.67013,1.32472,0.88751
1.40596,1.42943,1.7361,0.14483,1.39527,1.21197,0.88427,0.83776,1.02583,1.05187,1.77789,0.45572,2.01367,1.23529,2.01276,1.30843,1.22113,0.4324,0.74583,0.66406,1.75745,0.81382
1.53989,1.08578,1.55663,0.13479,1.72149,1.22522,1.18001,0.66056,1.29667,1.27715,1.68582,0.492,1.27346,1.43999,1.25317,2.06468,1.72006,0.37495,0.70318,0.57966,0.74148,1.04303
1.261,1.05019,1.27646,0.11206,1.25875,1.06064,0.83586,0.73014,0.92915,0.77167,1.06044,0.39098,0.85991,0.93754,1.0794,1.31374,1.19254,0.40526,0.61274,0.53793,0.6135,0.68016
1.01018,0.83305,1.08572,0.09604,0.74511,0.72201,0.48943,0.53391,0.7324,0.73196,0.92613,0.28969,0.94627,0.84181,0.83662,1.206,1.1094,0.35575,0.48866,0.40511,0.55747,0.68059
1.62611,1.33715,1.74939,0.12308,1.12355,1.11879,0.65433,0.70555,0.89297,0.99143,1.53685,0.35437,1.91763,1.58422,1.54849,1.74435,1.94258,0.37583,0.57619,0.66204,0.95759,0.83356
1.51812,1.4265,1.604,0.11844,1.06811,1.33834,0.57888,0.82066,0.87463,1.16803,1.57203,0.31114,2.12248,1.24196,1.77914,1.45225,1.66543,0.43114,0.59126,0.76862,1.58187,0.82809
1.37923,0.96769,1.21483,0.13148,0.75929,0.92656,0.56162,0.63524,0.68333,0.815,1.13549,0.2744,1.43135,0.89735,1.38699,0.95266,1.14355,0.37117,0.48225,0.56791,0.93791,0.68437
1.1775,0.77791,0.86769,0.10664,0.90338,1.01704,0.49407,0.71251,0.70428,1.09444,1.0522,0.3063,0.76996,0.88853,1.15665,1.02008,1.00977,0.41643,0.50598,0.46556,0.57689,0.55682
1.6122,1.22509,1.63066,0.11341,1.11796,1.3448,0.75173,0.88159,0.72397,0.96755,1.31024,0.39595,1.13734,1.02539,1.56839,1.13766,1.36035,0.67628,0.582,0.52321,0.68376,0.59824
0.89045,0.89605,0.97762,0.10512,0.61211,1.04925,0.48211,0.91653,0.54505,0.92673,1.0541,0.25044,1.27249,0.99511,1.19045,1.0116,1.05805,0.53966,0.55737,0.56885,0.67997,0.54964
1.54145,1.57564,1.75404,0.1638,1.41913,1.61824,0.8258,1.14896,1.06878,1.21138,1.77348,0.38578,1.33495,1.09749,1.55039,1.51905,1.69619,0.43449,0.71537,0.96849,1.38873,0.94672
1.96106,2.51155,2.66069,0.29028,2.53801,2.94418,1.34819,1.84865,1.61467,2.39426,3.22188,0.53532,2.55825,1.81994,2.00051,1.8691,1.9897,0.706,1.12499,1.34922,1.85547,1.37441
0.91096,1.10024,1.08166,0.11893,0.72879,0.92571,0.65525,0.65642,0.72118,0.8747,1.11784,0.39501,1.65576,1.09854,1.23547,1.20672,1.10777,0.43029,0.56042,0.52201,0.64929,0.78161
0.87649,0.81672,0.89584,0.10705,0.89994,0.93857,0.63802,0.63995,0.79078,0.80108,1.24076,0.30429,0.60624,0.52834,0.89337,0.74029,0.77978,0.36861,0.49627,0.50643,0.58109,0.51735
1.70742,2.07673,1.9729,0.12119,1.78445,1.81277,0.89929,1.03404,1.01391,1.13303,2.85992,0.4144,1.13749,0.90316,1.27274,1.23922,1.12527,0.39345,0.72101,0.66943,1.03621,0.62056
1.80357,2.01122,2.06604,0.16139,2.56343,2.6178,0.88576,1.17257,1.64927,1.6793,2.57367,0.3721,1.7339,1.58967,1.58672,1.71541,1.66288,0.37809,0.64424,0.73568,1.4104,1.00453
1.68403,1.55153,1.5307,0.11973,1.65829,1.76959,0.75294,1.04805,0.99681,1.31762,2.03911,0.28752,1.63309,1.68082,1.36081,1.84722,1.81378,0.41798,0.79136,0.63068,0.87059,0.89964
1.21901,1.28182,1.57914,0.12605,0.79703,1.07037,0.49774,0.59966,0.77663,0.95873,1.36215,0.26548,1.1078,1.27725,1.18135,1.36845,1.48725,0.3222,0.481,0.47414,0.58178,0.66801
1.28853,1.40289,1.52943,0.11816,0.70122,0.96471,0.46591,0.73566,0.71304,0.88668,1.21645,0.2398,1.15009,1.25042,1.25981,1.59488,1.47732,0.29659,0.50043,0.64739,0.59252,0.79308
1.31115,1.21565,1.52043,0.19,0.72805,1.06378,0.71538,1.17288,0.79235,1.11734,1.08913,0.90269,1.29924,1.07275,1.34928,1.5547,1.70351,0.67423,0.55801,0.79677,0.76625,0.7885
1.65344,1.48409,1.90557,0.151,1.04623,1.05698,0.85581,1.04436,0.8519,0.9865,1.36308,0.85028,1.58568,1.27374,1.57332,1.7763,1.90362,0.56962,0.76701,0.81322,1.21113,0.89603
1.52753,1.2162,1.65644,0.11272,0.85505,0.9263,0.63671,0.74632,1.2351,1.21675,1.34255,0.33545,1.24566,0.79165,1.79561,1.13439,1.7545,0.39435,0.5213,0.48319,0.72457,0.55241
1.58187,1.38478,1.76398,0.1044,0.73985,0.99827,0.66011,0.8157,0.74649,1.09718,1.21653,0.55894,1.34462,1.06326,1.34073,1.72677,1.59886,0.45321,0.60867,0.66665,0.86796,0.88405
1.45977,1.66222,1.77747,0.12891,1.09789,1.39992,1.03459,1.21216,1.16517,1.4783,1.71818,1.35265,1.55407,1.46628,1.33692,1.89894,1.66781,0.7484,0.59195,0.67212,1.11087,1.03554
1.39203,1.15987,1.63617,0.11166,0.90964,0.93242,0.83651,0.97288,1.03341,1.27859,1.16043,1.01752,1.16341,1.20995,1.353,1.6492,1.76777,0.59285,0.55539,0.62981,0.66664,0.88796
1.38553,1.07395,1.37511,0.0936,0.75127,0.97598,0.68732,0.76661,0.91999,1.05381,1.15195,0.55152,1.40469,1.10469,1.60383,1.36717,1.36888,0.42762,0.5814,0.52016,0.89538,0.87314
1.64796,1.63532,1.99433,0.09606,1.18705,1.3106,0.72894,1.08993,1.15787,1.18973,1.68473,0.50041,1.08384,1.04114,1.48636,1.39345,1.45756,0.73535,0.62699,0.62887,1.08169,0.69651
2.38295,1.72124,2.13686,0.12978,1.06101,1.11608,0.63486,0.82709,0.96959,1.1407,1.4479,0.32701,1.98393,1.39578,2.03554,1.98298,2.69591,0.37177,0.66636,0.64726,1.5741,0.87075
1.48842,2.30147,1.84747,0.11414,2.7799,2.32255,1.34778,1.25486,1.69527,1.4607,2.29828,0.69027,1.41538,1.35982,1.22177,1.95815,1.33896,0.45166,0.79218,0.81751,1.14704,1.11074
0.85177,1.10121,1.15166,0.10731,0.56305,1.03678,0.45222,0.8021,0.62618,0.86574,0.99861,0.2501,1.11321,0.83252,1.13756,1.25332,1.24734,0.39098,0.38014,0.61941,0.55486,0.63289
1.01709,1.09133,1.23237,0.10415,0.83762,1.06148,0.45864,0.69805,0.78784,1.00185,1.26541,0.27078,0.67034,0.75293,0.88685,0.97589,1.00099,0.36311,0.37035,0.46109,0.47337,0.52471
1.03706,1.22379,1.3812,0.1062,0.93539,0.95192,0.69654,0.71105,0.905,0.96211,1.20028,0.38389,1.17565,1.0959,1.02976,1.24695,1.1601,0.38028,0.5509,0.51098,0.97657,0.76761
1.21951,1.34085,1.56192,0.14657,0.87388,1.25389,0.61384,0.83895,0.85272,1.14323,1.37238,0.33432,1.37665,1.25339,1.27721,1.21421,1.41295,0.38791,0.54412,0.62735,1.26519,0.69177
1.20174,1.11016,1.46299,0.11189,0.76565,0.92762,0.45134,0.74756,0.69473,0.90356,1.10331,0.28796,1.13423,1.75778,1.1021,1.2827,1.37169,0.32918,0.53483,0.52833,0.80646,0.83258
1.12461,0.8009,1.10422,0.1075,0.60532,0.64584,0.42362,0.53417,0.65319,0.72542,0.87655,0.25683,1.14313,0.91334,1.22264,1.047,1.26952,0.265,0.42563,0.40412,0.58798,0.5762
1.32017,0.84785,1.37624,0.10236,0.84878,0.8129,0.61661,0.68911,0.75655,0.88306,1.06708,0.32411,1.00962,0.80569,1.17512,0.99537,1.2701,0.39019,0.50019,0.43192,0.86961,0.61208
1.70033,1.30763,1.74257,0.13268,1.05496,1.08003,0.71568,0.75146,0.88253,0.87663,1.29232,0.30874,1.19123,1.18716,1.72396,1.43948,1.60537,0.32979,0.6425,0.52637,1.28201,0.7045
1.27758,1.15414,1.26743,0.11293,1.3536,1.01723,0.80767,0.60219,0.97618,0.88294,1.41375,0.36728,1.16705,0.97966,1.30259,1.26775,1.18341,0.31205,0.57008,0.4655,0.62252,0.64784
2.09968,1.38565,1.71144,0.09585,2.50641,1.78292,1.20382,0.79223,1.50556,1.39342,2.12247,0.61544,1.16861,0.87695,1.80809,1.26718,1.39727,0.44278,0.64686,0.53946,0.77112,0.67416
1.41342,1.14314,1.24108,0.12265,1.42505,1.73653,0.71819,0.97127,1.14423,1.48467,1.89663,0.50374,2.00988,1.4482,1.70439,1.37232,1.47533,0.43126,0.57128,0.58103,1.15543,0.71868
2.90329,1.80028,2.7853,0.18711,1.80253,1.47206,1.03547,1.02895,1.51901,1.59106,2.37031,0.68563,2.05275,1.46707,3.37897,2.30862,2.79937,0.55199,0.92055,0.73528,1.7987,1.2514
1.53893,1.60057,1.82388,0.15689,0.84268,1.20522,0.64718,1.00933,0.71105,1.03846,1.31574,0.32316,1.48528,1.49466,1.61121,1.85955,2.19066,0.52965,0.86209,0.923,1.39246,1.07983
1.05051,0.92277,0.95386,0.11808,0.5469,0.9969,0.43115,0.81555,0.61965,0.90226,1.00243,0.25022,1.07032,0.78003,1.7502,0.99703,1.24795,0.39799,0.47524,0.53057,0.67512,0.56855
0.95643,0.91399,1.12331,0.10722,0.63648,0.98605,0.40094,0.6972,0.61146,0.79418,1.015,0.22072,1.39154,0.84709,1.09947,1.36749,1.47388,0.34994,0.36179,0.49635,0.47991,0.70205
1.15091,1.06327,0.981,0.10533,0.87372,1.08363,0.52887,0.57915,0.71459,0.96981,0.91128,0.24475,0.85867,1.20396,1.24043,2.13941,1.2986,0.32857,0.5186,0.54249,0.63336,1.03039
1.07729,1.29596,1.22059,0.16282,0.82874,1.38624,0.52074,0.93742,0.79124,1.12019,1.15469,0.25954,1.53338,1.45651,1.12049,1.50474,1.41515,0.389,0.5747,0.746,1.34061,0.99957
1.28212,1.41509,1.31447,0.22538,0.90314,1.17136,0.68772,0.94294,0.91699,1.14158,1.35435,0.37131,1.73909,1.37519,1.57561,2.04671,1.76356,0.36,0.61515,0.96478,1.66289,1.3732
4.52715,2.5761,3.95977,0.23948,1.67122,2.00662,0.95638,1.417,1.50169,1.9344,2.79884,0.54344,2.60053,1.28437,4.77071,2.72781,3.31393,0.61523,1.16067,1.09124,2.21133,1.11796
4.50636,3.328,5.30484,0.14926,2.08641,2.05189,0.80726,1.2065,1.91813,2.13927,3.42722,0.52126,2.66453,1.86184,4.68117,5.04005,5.53479,0.62358,0.85399,0.92604,1.5392,1.65822
1.28974,1.1083,1.17298,0.11463,0.9573,0.97264,0.61355,0.6804,0.88755,0.96142,1.34396,0.3268,1.0721,1.29514,1.28686,1.82295,1.49733,0.39243,0.50583,0.48931,0.49814,0.82873
1.39076,1.02263,1.19885,0.15692,1.06343,1.50102,0.63216,0.99145,0.89537,1.70922,1.49016,0.31171,1.22705,1.17021,1.33956,1.40006,1.36845,0.49198,0.67228,0.64418,1.21582,0.78238
1.85764,1.84913,2.09207,0.24462,2.04227,2.17928,1.07704,1.37934,1.2805,1.80779,2.36725,0.37936,2.18249,1.80789,2.6683,2.09055,2.5375,0.64625,0.99813,1.0519,1.70462,1.22944
1.88882,1.63683,1.60893,0.19079,1.96477,2.0873,1.07292,1.2842,1.49598,1.78332,1.91771,0.47709,1.26864,1.00949,1.61119,1.76557,1.70246,0.50247,0.91492,1.01518,0.75919,0.99238
1.01947,0.66773,0.81941,0.11215,1.06708,1.09533,0.58618,0.6397,0.8045,1.0126,1.04775,0.2716,0.92658,0.64195,1.13473,0.93546,0.9187,0.37249,0.51229,0.42755,0.57277,0.49881
0.90342,0.91285,0.90588,0.12155,1.02189,0.98923,0.60433,0.65184,0.81597,0.97479,1.15726,0.31221,0.73148,0.67442,0.84333,0.88689,0.78447,0.40922,0.44618,0.53517,0.56372,0.54478
1.83249,1.97471,2.10802,0.26815,1.57213,1.70109,0.75798,1.1103,1.0338,1.36231,1.85665,0.29954,1.39496,1.09772,1.41757,1.39146,1.39276,0.41066,0.74144,0.89341,1.49257,0.96073
1.93209,1.47901,1.88154,0.17755,1.8311,1.26338,1.01382,1.03787,1.21985,1.11981,1.52509,0.38424,1.21702,1.07781,1.82093,1.73766,1.60751,0.46108,0.8794,0.84717,1.1343,0.93719
1.31268,1.00185,1.45914,0.12951,0.91608,0.81059,0.48468,0.6007,0.75916,0.85826,1.15267,0.28823,0.80226,0.82861,0.94889,1.02574,1.12529,0.35629,0.40781,0.54056,0.51184,0.57552
0.89733,0.97381,1.16072,0.1216,0.81696,1.36762,0.48227,0.75961,0.66455,1.23275,1.12963,0.21138,0.87862,0.70609,0.76474,1.02478,0.92153,0.39361,0.39439,0.45748,0.44672,0.49482
1.00337,1.0571,0.96014,0.12012,0.71382,0.98656,0.54299,0.70508,0.68616,0.79206,0.99814,0.29803,1.19066,1.0223,1.15755,1.08183,1.00797,0.41962,0.56102,0.62263,0.63374,0.68507
1.45563,1.44212,1.43889,0.12055,1.87104,1.36554,0.90463,0.76542,1.1695,0.93827,1.44013,0.36392,1.20145,1.20657,1.45019,1.14252,1.29771,0.37574,0.75744,0.66131,1.15872,0.69517
1.76044,1.63387,1.54465,0.14574,2.3402,2.07105,0.8946,1.16292,1.30578,1.55873,2.62217,0.33083,1.60459,1.79757,1.46525,1.25206,1.27587,0.45665,0.73105,0.77311,1.22875,0.71267
1.30008,1.20921,1.30108,0.0971,0.89971,0.98338,0.56114,0.73327,0.66146,0.84183,1.14348,0.2949,1.2119,1.39685,1.38448,1.48784,1.42954,0.39136,0.6719,0.63331,0.72547,0.76551
1.02924,1.26543,1.2734,0.12652,0.86115,0.92272,0.59315,0.57499,0.79399,0.81438,1.20925,0.3903,0.98127,0.8146,1.28688,1.61669,1.11928,0.34323,0.5085,0.52581,0.82067,0.7128
1.26439,1.17776,1.55911,0.1014,0.88756,0.75016,0.63965,0.54729,0.87651,0.91216,1.22277,0.3117,1.02987,1.18089,0.99279,1.53929,1.25629,0.35516,0.44359,0.51089,0.54135,0.77399
1.17876,1.25222,1.51396,0.11653,0.77816,1.34867,0.78643,1.53947,0.85878,1.39401,1.37268,0.60116,1.42406,1.33477,1.38282,1.46898,1.5664,0.89278,0.68048,0.73203,1.0475,0.80485
1.57453,2.00815,2.24497,0.1181,1.31463,1.62603,0.92175,1.10025,1.09127,1.45671,2.42237,0.48889,1.19206,1.30614,1.82032,2.10297,1.73726,0.65473,0.99619,0.98889,1.45869,1.34716
1.29087,1.23918,1.48464,0.0915,0.84839,1.02698,0.82174,1.0008,0.84133,1.0556,1.34665,0.91847,1.20598,0.89173,1.23615,1.27182,1.46994,0.65477,0.52343,0.63828,0.6592,0.76283
1.34674,1.41273,1.72653,0.11983,1.14433,1.10663,0.9191,1.15485,1.05403,1.39017,1.26411,1.00289,1.48622,1.20627,1.48425,1.80063,1.47729,0.72966,0.51901,0.63896,0.72674,0.94223
1.47517,1.50239,1.77109,0.1101,1.04317,1.07284,0.92406,1.19849,1.21251,1.36641,1.56384,1.11233,1.24536,1.44407,1.64263,1.83318,1.58068,0.67152,0.62164,0.63148,1.07915,1.00364
1.48808,1.63034,1.67635,0.12397,1.13655,1.45151,0.94346,0.98443,1.14581,1.42599,1.75333,0.68592,2.57659,1.96341,1.57489,2.37917,1.54883,0.5417,0.67203,0.7435,1.47494,1.34067
2.1015,1.78158,2.11751,0.11602,1.7629,1.6026,1.07805,1.03981,1.50505,1.61027,2.28475,0.67861,2.12554,2.03954,1.82964,2.71769,2.13131,0.55526,0.65301,0.83489,1.02167,1.77361
1.27766,1.3867,1.29126,0.09898,0.9229,1.11653,0.62496,0.79455,0.74556,0.96963,1.23022,0.315,1.1538,1.09654,1.38078,1.48312,1.13196,0.44761,0.48587,0.6589,0.60198,0.7302
1.11501,1.09615,1.26324,0.10797,0.8261,0.96783,0.48255,0.531,0.7271,0.8406,1.05066,0.26153,1.02081,0.8954,1.09035,1.34631,1.30336,0.32972,0.49351,0.44592,0.56368,0.58053
1.36911,1.41984,1.50356,0.11894,1.12757,1.62587,0.60565,0.76342,0.92292,1.29457,1.57309,0.28869,1.27147,1.08903,1.42996,1.27445,1.21292,0.36965,0.52526,0.52939,1.27384,0.59858
1.42625,1.37502,1.51454,0.17383,1.13972,1.36943,0.63357,0.99272,0.90807,1.31237,1.5721,0.27467,1.46774,1.15943,1.42959,1.44419,1.46378,0.46131,0.61265,0.92887,1.53661,0.85892
1.25865,0.86907,1.14319,0.22206,0.75287,0.64449,0.4351,0.48627,0.61707,0.72819,0.99817,0.22263,1.06939,0.87099,1.29039,0.9537,1.2046,0.33764,0.44403,0.45178,0.67261,0.51744
0.6958,0.86029,0.84989,0.11547,0.62655,0.76944,0.40878,0.55845,0.5882,0.73931,0.94394,0.22407,0.87533,0.69223,0.76248,1.00348,0.84895,0.32476,0.40755,0.48936,0.48434,0.52078
1.04466,0.88496,1.03441,0.10171,1.49536,0.95932,0.85426,0.53914,0.8839,0.77668,1.19089,0.30186,0.8956,0.79725,1.01344,1.00882,1.12424,0.29806,0.56595,0.39529,0.57591,0.5302
1.13352,1.17276,1.22712,0.1545,1.03614,1.36123,0.49438,0.85949,0.91637,1.18501,1.52033,0.26053,1.64866,1.43142,1.42579,1.22267,1.2553,0.34082,0.5164,0.64108,1.39163,0.72453
1.528,1.36797,1.54788,0.16425,1.86177,1.99358,0.87944,1.10016,1.0189,1.39464,1.83418,0.38022,1.40107,1.16494,1.45413,1.58565,1.31921,0.54533,0.85542,0.66867,1.40297,0.82298
1.31531,1.17884,1.21402,0.18663,0.86344,0.85536,0.57176,0.56055,0.61654,0.78653,1.27112,0.2674,1.00697,0.98558,1.1963,1.31657,1.14361,0.35675,0.59374,0.50289,0.55581,0.71456
1.06396,1.08676,1.09218,1.21376,0.88815,1.23317,0.6209,0.75676,0.76853,1.03476,1.20108,0.28312,0.98228,0.77894,1.02316,1.12796,1.04134,0.40204,0.49309,0.59928,0.56558,0.66157
1.16837,0.99224,1.38166,2.61344,0.9048,0.90803,0.59338,0.5682,0.80998,0.81636,1.20287,0.25108,0.79577,0.76582,0.98294,1.07425,1.04664,0.31526,0.48389,0.50603,0.75927,0.57231
1.20754,1.29827,1.30114,3.31005,1.12347,0.9263,0.68864,0.66373,0.93484,0.84347,1.25856,0.33426,0.93812,0.8295,1.14991,1.13505,1.0923,0.31294,0.64114,0.64642,1.29262,0.63663
1.09873,1.07929,1.25947,0.13227,0.87919,1.10532,0.61398,0.65903,0.74995,1.0126,1.55209,0.30505,1.14968,1.20914,1.11088,1.42355,1.23456,0.3619,0.54899,0.53718,0.83469,0.84148
1.32463,1.46703,1.88502,0.10772,0.85396,1.26944,0.62958,0.82316,0.75285,1.07215,1.79268,0.28612,1.25178,1.13234,1.54617,1.62241,1.80944,0.46272,0.61353,0.57175,0.64315,0.61895
1.02608,1.33609,1.37655,0.10431,0.79012,1.15078,0.47805,0.78167,0.75346,1.00133,1.33981,0.29021,1.16563,1.12686,1.10964,1.34096,1.1606,0.4092,0.44548,0.53157,0.62393,0.61873
1.51558,1.29802,1.66199,0.13565,0.95863,1.15395,0.61459,0.77526,0.88274,1.20594,1.5308,0.33857,1.29276,1.22054,1.53861,1.65858,1.52957,0.49404,0.58515,0.75643,0.76507,0.78484
1.38138,1.26763,1.52959,0.12073,0.78242,0.98145,0.60936,0.75456,0.79645,0.9272,1.21104,0.32814,0.97872,0.88414,1.3398,1.39906,1.41471,0.38477,0.59056,0.61058,1.16976,0.70487
1.39174,1.48101,1.77809,0.10143,0.76778,1.17336,0.9273,1.32102,1.27294,1.70675,1.49733,0.73466,2.00109,1.49589,1.60519,1.67211,1.8145,0.71409,0.68496,0.81295,1.00057,1.02571
1.12465,1.54709,1.71644,0.12776,0.79603,1.02962,0.70167,0.78951,0.76987,0.86999,1.1524,0.67462,1.1219,1.05851,1.19872,1.40317,1.39985,0.43577,0.52298,0.69934,0.57869,0.8511
1.6421,1.32003,1.69154,0.09566,0.98966,0.96174,0.80547,0.7591,0.94682,1.05033,1.32604,0.66058,1.27221,0.93744,1.44662,1.28522,1.39199,0.51593,0.63921,0.59371,0.87789,0.75475
1.50407,1.2559,1.63451,0.11505,0.90463,1.05223,0.97269,1.70437,1.18474,1.59994,1.07249,2.00658,1.56397,1.46423,1.63419,1.7771,1.92883,1.37222,0.64082,0.53171,1.08992,0.8339
1.76626,1.43429,2.19017,0.10011,0.97972,1.19385,0.96264,1.01958,1.14239,1.35277,1.51801,2.25732,2.1447,1.71645,1.97348,1.95906,2.2316,0.8544,0.61135,0.49276,0.82334,0.89288
1.59423,1.42958,1.69768,0.1282,0.91254,1.11761,1.29393,1.27855,1.13096,1.44315,1.3474,2.83058,1.56415,1.43628,1.59399,1.87428,1.75268,1.25561,0.65006,0.65092,0.80999,1.01063
1.84497,1.21139,1.71556,0.21238,1.26813,1.19021,1.04014,1.59949,1.22727,1.49471,1.39957,1.29102,1.88083,1.42335,1.85741,1.76128,1.96864,1.01888,0.7241,0.70705,1.20105,0.89037
1.90151,1.70198,1.69028,0.12088,1.34283,1.17863,1.38152,1.04754,1.63679,1.59778,1.51756,2.32844,2.04729,1.35749,2.3564,2.17151,1.8808,1.07357,0.84329,0.7591,1.79377,1.03744
2.53938,1.49282,2.51324,4.40793,1.73057,1.75092,1.01317,1.12537,1.49095,1.35753,2.03646,0.49015,1.28664,1.3647,2.04716,1.9728,1.6966,0.497,0.87639,0.68943,0.94401,0.95279
1.93832,2.13219,2.75559,0.1707,1.44473,2.01824,0.87362,1.2406,1.36738,1.70214,2.10585,0.42873,1.07972,0.97077,1.38747,1.67772,1.80484,0.54605,0.65048,0.67926,0.61973,0.80204
1.95566,1.32612,2.11517,0.11682,1.08794,1.26746,0.70419,0.90125,1.07638,1.24807,1.47095,0.4767,1.5007,1.19869,2.02007,1.63488,1.87677,0.43634,0.52731,0.70185,1.12234,0.941
1.53097,1.68243,1.82108,0.13454,2.31,2.25341,1.17665,1.44758,2.41224,1.90937,1.89297,0.62261,1.97723,1.68338,1.79996,1.70075,1.99728,0.51566,0.62162,0.87461,1.50497,0.8892
1.42764,1.51325,1.4584,0.12556,1.12381,1.96919,0.64255,1.05888,1.13288,1.38012,1.91546,0.29497,1.67242,1.24469,1.54549,1.87115,1.60164,0.41321,0.59602,0.6763,1.19536,0.82164
1.20281,1.08887,1.25996,0.08372,0.80796,0.83736,0.56165,0.6308,0.70936,0.88348,1.32812,0.25876,0.82723,0.74091,0.97153,1.3835,1.06102,0.41594,0.50113,0.56497,0.49251,0.60828
1.3886,1.12258,1.51428,0.10694,0.98222,0.96021,0.73596,0.73131,0.85342,0.92835,1.31125,0.38789,0.94859,0.80494,1.29123,1.33747,1.29586,0.44437,0.6734,0.57157,0.61774,0.66599
1.19924,1.34784,1.50665,0.11636,1.24889,1.31022,0.74855,0.84846,0.96374,1.12131,1.65451,0.32295,0.75601,0.81216,0.98199,1.28927,1.19784,0.42796,0.56339,0.58082,0.52224,0.68534
1.5214,1.55509,1.49574,0.12083,2.6326,1.68898,1.54086,0.90459,2.51907,1.595,2.13393,0.62485,1.30579,1.19479,1.57692,1.57465,1.77482,0.50043,0.87354,0.73676,1.29497,0.83487
1.93483,1.75706,1.85083,0.18879,2.4134,1.69719,0.97893,0.93466,1.25853,1.10181,2.17759,0.31565,1.40538,1.18245,1.63228,1.47925,1.48394,0.46322,1.03733,0.73849,1.66267,0.84726
1.66671,1.71663,1.59703,0.11963,3.33374,1.88263,1.68431,0.89407,1.77011,1.58412,2.16326,0.70632,1.27468,1.42309,1.35131,1.77433,1.52948,0.47094,0.85052,0.58152,0.78645,0.91931
1.25536,0.92779,1.16255,0.09232,0.65723,0.85417,0.38462,0.52852,0.49441,0.72202,0.93173,0.20177,0.96595,0.72026,1.20746,1.10798,1.12037,0.33529,0.45055,0.42436,0.5682,0.62672
0.94032,1.04044,0.99077,0.10135,1.19208,1.4736,0.56331,0.81285,1.12942,1.16131,1.34475,0.28571,0.70898,0.60477,0.91591,0.9722,0.92215,0.43458,0.45342,0.47241,0.52132,0.51589
1.96988,2.31131,2.21871,0.10264,2.48393,3.64266,0.90231,1.49092,1.49531,2.82264,3.33175,0.2928,1.45111,1.18927,1.37577,1.0737,1.30457,0.5988,0.90772,0.72383,1.18742,0.69597
2.39303,2.24864,2.38802,0.24862,3.49917,2.33001,1.32106,1.14354,1.95222,1.88606,2.92901,0.48254,2.55619,2.28349,2.08304,1.96487,2.04026,0.51834,0.94964,0.87325,1.64951,1.05404
1.75149,1.81644,1.67404,0.09871,1.36476,1.04805,0.6884,0.6529,1.0253,0.9405,1.3674,0.34375,1.27396,1.26407,1.5479,1.75538,2.19596,0.39267,0.65297,0.48979,0.8715,0.74917
1.17871,0.87681,1.03737,0.09306,0.81579,0.75248,0.62941,0.51756,0.60685,0.64549,0.95222,0.24805,1.26595,0.88216,1.30951,1.15294,1.43839,0.37178,0.50434,0.47709,0.58631,0.53586
0.99343,0.9106,1.08248,0.10788,0.73853,1.38686,0.46047,0.84269,0.68093,1.13509,1.24463,0.29949,0.93159,0.70297,0.80846,0.96387,0.94771,0.44483,0.41491,0.53892,0.44702,0.56255
1.47212,1.08678,1.38096,0.27871,0.90293,1.14374,0.64233,1.04102,0.77805,1.07022,1.30798,0.24756,1.00284,0.97799,1.49603,1.29526,1.32929,0.53419,0.61292,0.76955,1.39021,0.95336
4.20639,4.59474,5.61461,4.46404,2.3171,3.81464,1.77877,3.82854,3.00095,3.54305,4.00636,0.67056,2.81745,2.74168,4.26003,4.0513,3.96789,0.83304,1.59811,3.73855,2.80779,2.87507
5.72036,5.03915,5.07147,60.94284,2.92134,5.35257,2.13642,3.99064,11.30084,8.78126,4.3905,0.84649,3.46847,3.06004,7.10361,5.53174,6.02621,0.8421,1.6899,3.39086,2.31611,2.71687
4.40645,3.99887,5.11635,4.64772,1.53397,2.73067,1.09277,2.27776,2.2133,2.93938,2.89188,0.5073,2.87865,2.42623,3.5971,4.76336,4.31919,0.62659,1.0732,2.02785,1.42825,2.16288
2.83556,3.23181,3.11019,2.42652,1.02257,1.96904,0.9269,1.34914,0.81434,1.35822,1.94791,0.3647,2.63715,1.94656,2.71697,3.50423,3.13904,0.50482,0.93936,1.31343,0.92199,1.54569
1.10034,1.0644,1.14184,0.33525,1.02737,1.01834,0.63476,0.71037,0.9553,1.14648,1.26164,0.29073,1.53726,1.33825,0.97656,1.23431,1.08013,0.38862,0.52228,0.55231,0.56596,0.61112
1.77342,1.67479,2.19836,0.20171,2.01892,1.73632,0.91675,1.14871,1.76583,1.74572,2.30368,0.38992,2.06083,1.61109,1.86726,1.82487,1.71666,0.54703,0.7229,0.83987,1.22743,1.03004
1.7078,1.39839,1.64898,0.18621,1.49144,1.72527,0.76827,1.21343,1.26044,1.65247,1.71387,0.36947,1.17914,1.24885,1.37789,1.70044,1.56845,0.54568,0.57776,0.8792,1.24427,0.83547
1.59894,1.46498,1.74654,0.12075,1.09852,0.95526,0.65205,0.7004,0.8743,0.89604,1.40137,0.31475,1.36596,0.95322,1.52265,1.56303,1.73232,0.4303,0.63607,0.68029,0.84802,0.83087
1.47392,1.26394,1.67546,0.13996,1.52834,1.36138,0.88518,0.72647,0.92997,1.01259,1.37826,0.38395,1.0589,0.74614,1.37321,1.04758,1.03803,0.3657,0.7082,0.59236,0.57504,0.56873
1.98022,1.54346,1.53173,0.1573,1.73295,1.88522,0.7998,0.924,1.14051,1.25739,1.87457,0.34026,1.15279,0.91911,1.54167,1.42773,1.43488,0.38921,0.79867,0.69698,0.70667,0.79443
1.29779,1.10067,1.36514,0.15443,1.64805,0.95079,0.85283,0.59507,1.15822,0.97492,1.71249,0.34297,0.8343,0.85205,0.93289,1.0007,1.09757,0.31353,0.49123,0.4746,0.47615,0.55181
1.27865,1.2017,1.46704,0.12229,1.19375,1.22416,0.60971,0.73319,0.96869,1.05315,1.54622,0.27374,1.43661,1.45836,1.34551,1.25156,1.44748,0.36466,0.48994,0.58224,0.76085,0.94301
1.49701,1.40032,1.91117,5.94608,1.00356,1.23878,0.76684,0.79296,0.89232,1.03571,1.55339,0.39178,1.58591,1.38084,1.57526,1.75221,1.80691,0.35587,0.47814,0.98901,1.10735,0.95626
1.43548,1.51732,1.76033,3.34591,0.80294,1.00765,0.83583,0.81585,0.79157,0.93616,1.30161,1.02385,1.62706,1.30223,1.49661,1.87842,1.60546,0.52784,0.53789,0.62105,0.75343,1.00501
1.253,1.15449,1.47635,0.31909,0.91227,1.29085,0.72964,1.38362,0.89432,1.2564,1.27168,0.54151,1.30042,1.12942,1.41392,1.27047,1.42523,0.50222,0.5073,0.83074,0.6479,0.75806
1.78835,1.52833,1.92312,0.1465,1.15879,1.31266,0.74389,1.09075,0.97921,1.24773,1.5675,0.43203,1.37234,1.3167,1.4885,1.39557,1.67519,0.40549,0.71257,0.65221,0.69175,0.89117
1.78328,1.56275,2.12389,0.17238,1.19211,1.15795,0.90452,1.03793,1.04035,1.22431,1.57009,0.63715,1.84118,1.29829,1.75662,2.18423,2.22868,0.51204,0.64376,0.67625,0.95026,1.00668
1.40833,1.09694,1.49352,0.13993,0.94381,0.98353,0.90259,1.22757,0.96955,1.14973,1.14096,1.3864,1.31076,0.99359,1.619,1.33888,1.55586,0.72086,0.59776,0.6047,1.14025,0.75285
1.45568,1.24927,1.87344,0.94984,1.13694,1.19135,0.78229,1.434,1.04799,1.55166,1.45356,0.95652,1.12227,1.0455,1.2166,1.43345,1.46083,0.61653,0.55742,0.61786,0.69832,0.76104
2.20943,1.66201,2.31846,0.78754,1.22171,1.45014,0.86565,1.46645,1.15136,1.46534,2.08796,0.95814,1.7777,1.17976,1.79868,1.7404,1.97289,0.64193,0.61324,0.85105,0.72021,0.90442
1.83418,1.26932,1.67156,0.43312,0.96582,0.9207,0.67583,1.14126,0.91309,1.08864,1.33453,0.50812,1.25718,1.09578,1.72779,1.41035,1.3709,0.56823,0.54965,0.66901,0.92926,0.78063
1.87079,1.58332,2.06895,0.13186,1.22236,1.34826,0.87593,1.24057,1.13282,1.43496,1.78804,0.90908,1.48511,1.5912,1.69644,1.74059,1.99428,0.69463,0.70492,0.77529,1.27965,1.00121
1.63176,1.65985,1.6808,0.14149,1.09375,1.35136,1.11757,1.21613,1.21497,1.36907,1.5866,1.65842,1.47749,1.40207,1.47452,1.86135,1.4535,0.82577,0.56812,0.90673,0.85062,1.1535
2.29776,1.29207,1.71522,0.11149,1.42544,1.58324,0.98421,1.61782,1.19995,1.82353,1.79273,0.97957,1.81839,1.37125,2.46888,1.22733,1.75124,0.87905,0.67134,0.66505,0.85865,0.7655
2.42654,2.09393,2.54356,0.10989,1.71288,1.65876,0.98059,1.0058,1.45295,1.44612,2.27245,0.52809,2.44965,1.99303,2.37969,2.36462,2.3861,0.43601,0.76024,0.69144,1.19992,1.18243
2.13937,2.06878,2.02139,0.10266,1.71077,1.94818,0.79766,1.25452,1.21858,1.62618,2.35784,0.34853,2.21725,1.74411,2.08519,2.01559,1.80808,0.52978,0.74416,0.7658,1.61041,0.8909
1.54437,1.45306,1.35102,0.11098,1.45422,1.72875,0.903,0.93032,1.04767,1.25626,1.30695,0.34519,1.7183,1.157,1.62337,2.05439,1.64082,0.34857,0.62565,0.51782,0.66961,0.98471
1.30362,0.79831,1.09406,0.10877,0.86513,0.92211,0.50176,0.57936,0.62009,0.78853,1.13505,0.25165,0.79576,0.67636,1.26934,0.89757,1.01092,0.33011,0.6022,0.47224,0.6773,0.50005
1.05417,1.12914,1.25429,0.1126,0.83431,1.17547,0.54287,0.83639,0.74066,1.03043,1.19485,0.25561,1.30667,1.1264,1.25838,1.24115,1.26094,0.3984,0.51815,0.59655,1.01046,0.61898
1.78268,1.19166,1.67052,0.19565,1.84909,1.76816,1.09503,1.08808,1.34092,1.59063,1.81308,0.49798,1.91052,1.01548,1.67466,1.49326,1.34203,0.56834,0.81418,0.64591,1.33494,0.82215
2.05729,2.12584,2.72647,0.13862,1.85211,2.29927,1.25093,1.58767,1.16022,1.79596,2.33801,0.48236,1.93549,2.13814,2.32382,3.37098,3.02362,0.86937,1.12114,0.9621,1.07532,1.4334
1.21384,1.32359,1.29788,0.15174,0.83762,1.2507,0.56742,1.02806,0.53348,1.04144,1.37793,0.30752,0.95189,0.77123,1.10698,1.47824,1.26411,0.56068,0.76795,0.81016,0.70028,0.76489
1.01345,0.73407,1.0622,0.10422,0.76007,0.72686,0.45337,0.43877,0.64192,0.73182,1.05179,0.22714,1.03297,0.89334,1.00671,0.88433,1.00663,0.31469,0.49097,0.44438,0.71449,0.56112
1.23354,1.17009,1.48588,0.18315,1.31932,1.45388,0.6211,0.90642,0.82204,1.19467,1.566,0.24298,1.22719,0.95405,1.14921,1.14944,1.28189,0.3639,0.53346,0.65011,1.01604,0.6359
1.66128,1.41977,1.81525,0.28835,1.36701,1.55454,0.82959,1.0623,1.19631,1.5245,1.79253,0.35497,2.27099,1.47606,2.31826,2.72529,2.56008,0.43868,0.69007,0.82791,1.29831,1.28964
1.65985,1.26482,1.45821,0.11172,0.77329,0.95811,0.40859,0.6336,0.75452,0.86161,1.18489,0.22351,1.01119,0.82613,1.74195,1.48099,1.50402,0.35849,0.48768,0.5599,0.6182,0.75201
1.44932,0.98149,1.30908,0.10366,1.03616,1.03435,0.6099,0.68454,0.76847,0.9802,1.21944,0.27458,1.53662,1.01937,1.69039,1.06682,1.45339,0.35843,0.51527,0.56,0.70709,0.62389
1.17691,1.07858,1.23902,0.11495,1.20429,1.14468,0.70211,0.76474,1.38381,1.42619,1.44033,0.40579,1.2854,1.21174,1.22266,1.20009,1.33237,0.43695,0.53655,0.55322,0.81394,0.71137
1.96013,2.20996,1.96646,0.28731,1.93932,3.26995,1.28481,1.97364,1.3511,2.26323,2.42106,0.48993,1.53292,1.64039,2.16086,2.2166,1.90579,0.88956,1.22195,1.29614,1.78327,1.75555
1.79205,1.5633,1.91302,0.20376,1.07531,1.64334,0.79944,1.23321,0.88822,1.2194,1.66053,0.42707,1.48997,1.22279,1.57235,1.70359,1.89185,0.5851,0.65618,1.04618,0.90075,0.99257
2.11842,2.44132,2.47458,0.18803,1.86341,1.80329,0.83752,1.16622,1.36332,1.3925,2.20031,0.47527,1.08402,0.95497,1.7479,1.99635,2.05147,0.50542,0.82445,1.00148,0.77949,1.19334
1.24918,0.88393,1.18706,0.14972,0.77159,0.87411,0.50736,0.607,0.61692,0.72417,0.97469,0.23931,1.30327,0.87151,1.30691,1.38343,1.31825,0.33567,0.50448,0.56158,0.59705,0.63139
1.48414,1.6645,1.52455,0.17115,1.29838,1.24516,0.74849,0.89507,0.98841,0.91216,1.35333,0.24777,1.25151,1.11129,1.31259,1.53456,1.21158,0.35468,0.68323,0.77645,1.0339,0.82764
1.57895,1.3388,1.62643,0.15742,1.42203,1.52085,0.77597,0.94663,0.95918,1.25807,1.53659,0.30925,2.25877,2.13858,1.70387,1.46024,1.99239,0.39169,0.62895,0.60859,1.14886,0.76015
2.51404,1.8791,2.15165,0.13003,1.89104,1.65373,1.06816,0.81087,1.33933,1.47082,2.55495,0.43289,1.93744,1.3117,2.816,1.76746,1.88825,0.43526,1.03531,0.60035,1.30084,0.94426
7.50909,9.01189,8.04555,29.01855,37.05901,70.26966,23.70435,49.94871,952.21904,1055.9311,90.30032,2.32743,4.06486,4.37555,5.8312,7.15044,7.01625,18.17948,4.06708,15.68494,5.04528,5.13097
7.17478,7.31153,6.73017,12.85636,26.74263,60.61658,10.49909,46.51285,312.24695,398.68385,24.60688,1.48578,4.3028,4.35321,7.12344,8.31744,6.87693,5.28523,2.73236,13.20765,7.27718,5.30254
4.42011,4.93932,3.25361,0.72468,18.31987,41.70732,9.59797,30.04112,332.92314,264.79833,18.7487,1.03986,2.7504,2.39659,4.08311,4.60066,2.86335,3.83519,2.08487,8.7715,5.41115,2.71672
4.58008,3.84568,4.5576,2.31186,8.82668,22.53117,4.50533,11.72572,94.81522,79.80166,8.54892,0.62732,2.35826,2.29722,4.34872,5.48555,4.35749,1.22237,1.45538,4.28799,5.71584,2.76085
4.02611,4.00232,4.89517,3.30549,10.10423,22.21492,3.64814,7.11661,54.18823,73.38553,12.93115,0.55814,3.89494,2.4372,3.41953,3.67743,3.98589,1.39704,1.51534,3.91652,5.00155,2.82549
5.32396,4.06832,4.85601,1.9487,4.98483,5.44636,2.29136,4.65396,6.92457,7.19142,4.64973,1.11689,3.3664,2.55546,4.47807,4.57351,5.02185,0.94169,1.43476,2.77152,3.62854,2.43204
1.93645,2.43543,1.79214,0.66213,1.39595,1.74365,1.00291,1.52348,1.66374,1.95678,1.56949,0.49773,1.61353,1.13108,2.99193,2.59899,1.75106,0.75612,1.05872,1.84448,1.64758,1.34663
1.58212,1.34255,1.49838,0.472,0.91745,1.92712,0.54624,0.97249,1.02114,2.1532,1.59219,0.21347,1.53926,0.96035,1.50942,1.52195,1.40547,0.43269,0.55422,0.67579,0.69283,0.76646
1.33739,1.25219,1.49299,0.42973,1.08736,0.99935,0.75589,0.90766,0.94826,1.1834,1.42961,0.33198,1.59324,1.60902,1.47769,1.65612,1.54624,0.35286,0.63194,0.84737,1.16294,1.04659
2.37447,1.87467,2.03581,0.55256,1.65408,1.67742,0.90337,1.03705,1.4148,1.67458,2.46443,0.42258,2.24008,1.32691,2.48052,2.16423,2.02279,0.43495,0.96963,1.0233,2.02663,1.24152
1.8512,2.02366,1.87167,1.50891,1.34378,2.01388,1.04817,1.4323,1.06833,1.46524,2.01651,0.23592,1.38533,1.08958,1.78209,1.46046,1.63934,0.34597,1.19185,0.902,0.91277,0.81416
1.68645,2.10243,2.13639,0.91222,1.45509,1.98917,0.87896,1.18719,0.96306,1.39915,2.09607,0.30005,1.01103,0.96264,1.21123,1.61195,1.34582,0.50333,0.98778,0.86299,0.85661,0.79655
1.40107,1.62743,1.73939,0.74151,1.98835,1.55023,0.99002,0.98927,1.43116,1.43726,2.12325,0.36779,1.0435,1.00516,0.98502,1.3861,1.11898,0.37233,0.64002,0.78919,0.62122,0.88396
2.07635,2.12986,2.77682,0.36112,1.71359,2.39602,0.93738,1.39488,1.51117,1.94828,2.38573,0.46589,1.73958,1.75349,1.68642,2.37872,2.68549,0.49334,0.595,0.89672,0.74731,0.91321
1.43515,1.57424,1.62523,0.19014,1.43704,1.44097,0.67716,0.81089,0.95797,1.14656,1.67429,0.25843,1.31822,1.22995,1.06943,1.23166,1.26653,0.34749,0.54929,0.59408,0.74343,0.69219
1.63894,2.22612,1.94608,0.15107,2.03048,2.29041,0.90093,0.98246,1.4115,1.80411,2.69966,0.30797,1.41779,1.52098,1.48787,1.63459,1.67765,0.37666,0.73562,0.70993,1.29133,0.75567
2.14676,1.92804,2.56695,0.10883,1.27004,1.57201,0.6994,0.98547,0.94543,1.24411,1.90902,0.55234,1.97525,1.25887,1.76265,1.58622,1.90302,0.49853,0.60718,0.67186,0.89369,0.70189
1.48048,1.31699,1.61081,0.11367,1.10715,1.0793,0.69144,0.90306,0.89837,1.08593,1.56078,0.37077,1.14185,0.95635,1.47668,1.43318,1.47254,0.42484,0.54456,0.60856,0.74389,0.84536
1.25527,1.75035,1.75783,0.11911,0.84617,1.17318,1.04657,1.21288,0.87599,1.09835,1.51235,0.84486,1.69952,1.53327,1.31951,1.85698,1.65583,0.50591,0.64009,0.95402,0.75395,1.25284
1.64542,1.3977,1.97699,0.10693,0.99064,0.98753,0.57202,0.8187,0.95206,1.10347,1.60499,0.36876,1.53244,1.30397,1.70166,1.64398,1.41058,0.36804,0.5793,0.59007,0.94614,0.84049
1.52364,1.89451,1.86148,0.1146,1.03434,1.28113,1.0586,0.89422,1.06077,1.19868,1.44685,1.14595,1.9053,1.84852,1.47407,2.34577,1.9752,0.56257,0.76846,0.80643,1.34546,1.42518
1.3736,1.266,1.64852,0.10548,1.02245,1.03594,1.03215,0.89575,1.29777,1.1375,1.17003,1.27089,1.8253,1.18238,1.24075,1.58302,1.63097,0.85682,0.58744,0.53622,0.58025,0.77522
1.97743,1.65448,2.16078,0.10085,1.25047,1.36714,1.00545,1.1255,1.24355,1.33212,1.60004,1.07551,1.49134,1.11776,1.45002,1.46348,1.71682,0.82322,0.56576,0.64491,0.73736,0.79765
1.51832,1.60718,1.82375,0.12254,0.98951,1.33599,1.20874,1.38964,1.30387,1.502,1.52029,2.37388,1.38631,0.98734,1.31572,1.45706,1.68878,1.31774,0.53382,0.6171,0.74005,0.79791
1.83427,1.71966,2.17483,0.11448,1.26303,1.63497,1.38287,1.3356,1.53655,1.72397,1.72711,2.52675,1.97281,1.62779,1.96812,2.01527,2.16836,1.19267,0.58725,0.68835,1.10965,0.88589
1.09968,1.41592,1.5927,0.12184,0.83254,1.12921,0.70602,1.1915,0.77802,1.14897,1.25107,1.19538,1.14756,1.05062,1.13982,1.37741,1.24611,0.95735,0.50078,0.58597,0.78769,0.77986
1.54961,1.09599,1.63737,0.12129,0.99194,1.06197,1.11831,1.13326,0.95681,1.33306,1.31635,2.51956,0.96554,0.92731,1.3326,1.25302,1.40327,1.27789,0.52209,0.63345,0.638,0.67461
1.75266,1.72909,2.10783,0.13526,2.58946,4.69209,2.69494,8.37059,20.73146,39.01337,4.51335,2.35867,1.78571,1.76587,1.50127,1.92669,1.95756,17.57265,0.87942,1.05852,0.86365,1.00874
1.39167,1.20156,1.38371,0.09612,0.88564,1.06178,0.70794,0.73936,0.88028,1.21661,1.57637,0.37334,1.48657,1.09736,1.57621,1.69386,1.20611,0.59891,0.56609,0.58959,0.90776,0.90635
1.98125,1.53754,1.75884,0.09657,1.01718,1.19561,0.87472,0.8441,0.85445,1.04093,1.41595,0.60958,1.9099,1.65824,2.24988,1.89749,1.91046,0.47142,0.74177,0.64346,1.30482,0.90632
2.52381,1.44654,1.82074,0.11837,1.2581,1.26464,0.81778,0.7277,0.97198,1.11295,1.67316,0.36017,1.86225,1.34888,2.45518,1.88708,2.10861,0.34266,0.71371,0.62214,1.28679,0.89859
1.52565,1.19476,1.33901,0.09351,1.13175,1.37851,0.67576,0.75123,0.91778,1.1886,1.88962,0.304,1.56489,1.09801,2.0278,1.67009,1.37767,0.42913,0.60596,0.55135,0.72997,0.75463
1.25058,1.19622,1.30881,0.10956,0.82955,1.12996,0.69478,0.75787,0.84382,1.2097,1.69371,0.36577,1.57704,1.14509,1.16408,1.73721,1.28302,0.54398,0.49847,0.60992,0.52961,0.87671
0.89684,0.98794,1.09736,0.1108,0.74252,0.7957,0.54423,0.60382,0.6862,0.73393,1.03085,0.38079,1.21456,1.01591,1.22846,1.42115,1.34596,0.46399,0.44941,0.44811,0.69324,0.65286
1.65421,1.81154,1.86898,0.10416,1.1244,1.11226,0.88069,0.7078,0.87816,0.95276,1.41649,0.65789,1.93022,1.33177,1.72572,2.17881,1.95864,0.58225,0.74959,0.82953,1.04001,1.07419
1.60448,1.29545,1.80738,0.76577,0.99143,0.95497,0.67336,0.64902,0.70255,0.84083,1.29036,0.41086,1.30992,1.02705,1.36271,1.50203,1.66955,0.54666,0.57703,0.55117,0.57373,0.76075
1.42151,1.46386,1.80591,0.11431,0.97946,1.31042,1.09292,1.33931,1.01405,1.51401,1.42242,2.45479,1.54965,1.03191,1.35235,1.55368,1.82351,1.8871,0.52003,0.64078,0.63721,0.73063
1.37096,1.40298,1.80056,0.10737,1.03101,1.39957,1.31508,1.84318,1.96721,1.52891,1.51495,3.30235,1.44674,1.15416,1.13756,1.49479,1.55192,2.46578,0.66344,0.77104,0.72558,0.94908
1.63535,1.39311,1.7867,0.10585,1.10547,1.2576,1.45608,1.6659,1.314,1.54676,1.42183,3.7752,1.24652,1.0796,1.59716,1.47384,1.67545,2.35267,0.53979,0.68365,0.68064,0.84129
0.9436,0.9529,1.01417,0.09894,0.64833,0.88511,0.5903,0.71554,0.68809,0.78884,1.02395,0.45112,0.86099,0.79447,0.92019,1.03479,0.93966,0.53993,0.45103,0.4893,0.55203,0.58088
1.19899,1.20778,1.42067,0.1008,0.76218,0.98872,0.52055,0.61788,0.61607,0.8673,1.31364,0.34533,0.88377,0.84993,1.09295,1.23651,1.10502,0.5226,0.56703,0.4809,1.11067,0.67588
1.82008,1.34449,1.71254,0.12152,1.10956,1.14427,0.87121,0.77244,0.88775,1.03601,1.59485,0.66421,1.25481,0.9202,1.9109,1.39775,1.57581,0.58397,0.82476,0.66199,1.27096,0.89392
1.11869,1.09265,1.07641,0.08278,0.91525,0.97825,0.66059,0.60901,0.77363,0.97144,1.25138,0.43403,1.95685,1.00738,1.19178,1.54027,1.18419,0.52393,0.54931,0.56295,0.71051,0.77112
1.21078,1.2284,1.36663,0.10565,1.29636,1.01207,0.86172,0.69414,0.97503,0.92774,1.36098,0.57643,1.62339,0.9715,1.11854,1.24586,1.24255,0.58649,0.55568,0.54899,0.76631,0.67955
0.91664,1.04508,1.11058,0.2846,0.78978,0.8701,0.6003,0.68165,0.73671,0.95394,1.07479,0.57271,1.66225,1.54303,1.24638,1.28712,1.28209,0.57956,0.45884,0.48785,0.91429,0.7142
1.73044,1.72601,2.0343,0.13405,1.28297,1.37893,0.94061,0.89725,1.16517,1.32032,1.75106,0.50549,2.22889,2.00477,2.19997,2.76523,2.59182,0.60387,0.70769,0.70945,1.59091,0.95952
1.49535,1.43353,1.83354,0.10196,0.88421,1.13197,0.61879,0.73915,0.78317,1.06084,1.41258,0.37226,2.3482,1.28374,1.71734,2.03624,2.18221,0.58175,0.50359,0.5915,1.04903,0.90726
1.31528,1.06788,1.24682,0.11125,1.47634,1.35537,0.81629,0.65805,1.03419,1.33299,1.55159,0.405,1.10519,0.84313,1.24214,1.45509,1.26157,0.48907,0.5986,0.46123,0.56191,0.61806
0.98909,1.24576,1.26576,0.11028,1.07986,1.18558,0.66365,0.73267,0.70891,0.92803,1.33785,0.34419,0.97093,0.94344,0.96934,1.31853,1.16516,0.50408,0.39279,0.54033,0.73416,0.6492
1.47328,1.58409,1.61208,0.11857,1.22,1.4548,0.83643,0.85198,0.97963,1.38031,1.85906,0.39169,1.66492,1.25891,1.91398,2.0323,1.95562,0.5427,0.68256,0.61377,1.57069,0.87017
1.11708,1.12966,1.28332,0.14258,1.03697,1.0096,0.68259,0.65789,0.97277,0.9108,1.51887,0.3467,1.47751,1.74885,1.40393,1.64176,1.55103,0.49792,0.46073,0.55481,0.74268,0.80772
0.76636,0.74553,0.80424,0.14059,0.62105,0.79879,0.54911,0.45894,0.53678,0.57881,0.73814,0.30156,0.70435,0.58187,0.69159,0.97942,0.6985,0.42757,0.42934,0.38583,0.37309,0.55742
1.42872,0.79335,0.93854,0.2126,0.91629,1.02,0.50967,0.5682,0.7923,0.87283,1.0748,0.2877,1.37696,0.73344,1.68576,0.90242,1.15941,0.43755,0.5093,0.46443,1.0719,0.59271
2.78441,2.8427,2.27679,29.7012,2.25642,3.0384,1.52098,2.3983,1.80299,2.44676,3.22577,0.77037,1.70546,1.76425,2.38458,2.73483,1.88248,0.74007,1.44764,2.1285,2.00496,1.90729
4.4888,2.58168,3.3488,65.14457,2.2388,3.29427,1.37904,2.43455,2.63694,3.96572,3.33321,0.6707,2.35214,1.92518,4.37343,3.59815,3.34786,0.7882,1.22076,2.18703,1.61356,2.0065
1.33459,1.10246,1.56437,0.28976,0.78539,1.02069,0.69873,0.78368,0.85101,1.06743,1.31641,0.4101,1.46235,1.29407,1.83387,1.79043,1.49636,0.53089,0.60422,0.67751,1.14628,1.08505
1.02171,0.98143,0.95231,0.11307,0.86317,0.91113,0.60158,0.58862,0.80998,0.79185,1.16482,0.35342,1.29553,1.20153,1.21626,1.53733,1.168,0.49602,0.5088,0.56138,0.65947,0.90444
1.02571,1.24692,1.16895,0.15462,0.96942,1.3558,0.67567,0.83078,0.79781,1.02377,1.39274,0.34684,1.24097,1.23319,1.31501,1.25884,1.293,0.53191,0.52707,0.64979,1.0576,0.68466
1.34159,1.2321,1.21035,0.17997,1.06492,1.36554,0.5897,0.98428,0.69287,1.14501,1.20055,0.33431,1.34029,1.15913,1.7063,1.36926,1.34294,0.45797,0.58935,0.72033,1.26798,0.78452
1.19787,1.30602,1.27104,0.36559,1.8188,1.89562,0.83717,1.16403,1.13817,1.76825,1.82309,0.37268,0.7275,0.79765,1.01913,1.11726,1.107,0.66742,0.55172,0.69516,0.55291,0.66534
1.04884,1.08943,1.06194,0.21325,0.82052,1.57275,0.46523,0.90729,0.90388,1.32912,1.38077,0.31571,0.98273,0.74794,1.06482,1.0606,1.0132,0.53666,0.49178,0.60427,0.59419,0.72177
0.89527,0.91517,0.89526,0.15477,0.99006,1.58868,0.58235,1.12253,0.81079,1.15314,1.13199,0.3531,0.89217,0.92437,0.7872,1.15908,0.99729,0.62222,0.41836,0.66429,0.51309,0.68465
1.56646,2.31349,1.99915,0.36542,2.04512,2.11092,0.97629,1.61834,1.49297,1.7495,2.67293,0.39073,1.73702,1.54765,1.76492,1.87303,1.83312,0.53028,0.76601,1.24352,1.45626,1.16358
2.17167,2.29128,2.56994,0.52868,3.08856,2.45848,1.3437,1.95588,2.29661,2.08457,3.1027,0.5743,1.49999,1.31103,3.05827,2.06489,1.99596,0.665,0.85777,1.46272,1.07646,1.20956
1.79243,1.5792,1.64744,0.31398,2.03765,2.01,0.94264,1.67407,1.14474,1.49561,1.73932,0.40337,1.31031,1.02488,1.90027,1.53913,1.67066,0.5821,0.69957,1.4279,0.8929,1.18539
1.02051,1.37349,1.05238,0.18343,1.37683,1.57771,0.78061,1.0804,0.95655,1.49198,1.57939,0.3746,0.94379,0.89222,1.09266,1.00117,0.95324,0.63846,0.55769,0.73484,0.52452,0.69284
1.00867,0.9951,1.02698,0.11774,1.12779,1.02982,0.5374,0.71531,0.68134,0.84743,1.47144,0.27761,0.97788,0.98358,0.92321,0.94975,0.87776,0.47857,0.46494,0.54683,0.52212,0.54909
1.68392,2.0144,1.89597,0.19488,1.43767,1.61535,0.64365,1.17107,0.76563,1.17798,2.71723,0.30328,1.50453,1.61979,1.40641,1.88826,1.6407,0.58701,0.61337,0.93154,1.11582,0.95644
1.54766,1.3204,1.49835,0.19313,1.17195,1.66265,0.76567,0.94571,0.93991,1.54076,2.16427,0.35342,1.56696,1.1184,1.6656,1.23537,1.48227,0.54072,0.5496,0.65545,0.70523,0.71855
1.10886,1.14914,1.29414,0.11362,0.97502,1.27077,0.60241,0.70691,0.79467,1.04883,1.30507,0.35876,1.22908,0.91607,0.91175,1.26812,1.06487,0.4893,0.46051,0.58306,0.57655,0.75769
1.04136,1.35816,1.31339,0.11087,0.91157,1.51004,0.62159,0.85163,0.75263,1.16281,1.30593,0.38127,0.90234,0.93351,1.06168,1.18736,1.15936,0.53512,0.47133,0.64721,0.549,0.68017
1.3609,1.34478,1.80253,0.12033,0.76442,1.06334,0.48389,0.71451,0.6977,0.85926,1.44722,0.33158,1.11856,1.14626,1.20026,1.27023,1.51252,0.5147,0.42762,0.62261,0.76588,0.69762
1.69895,1.44171,2.266,0.11219,0.88341,1.28569,0.61014,1.11028,0.85964,1.24158,1.50126,0.43035,1.66281,1.35984,1.73557,1.63022,2.18239,0.45354,0.60293,0.57762,1.15343,0.73486
1.01287,1.03741,1.20091,0.13872,0.83794,0.79495,0.52598,0.60668,0.76611,0.74866,1.16998,0.33074,1.35659,0.95439,1.0504,1.2568,1.14684,0.47268,0.47733,0.57224,0.70296,0.64048
1.36522,1.30263,1.49598,0.24131,0.95892,1.0454,0.56251,0.93288,0.7239,0.93396,1.1168,0.48776,1.03519,1.08292,1.39199,1.36521,1.64812,0.47975,0.49339,0.63108,0.59651,0.66281
1.18329,1.48567,1.67825,0.12074,0.84998,1.03755,0.60776,0.91436,0.91698,1.05762,1.20374,0.58533,1.76212,1.43924,1.16041,1.98907,1.85463,0.5656,0.44292,0.53776,0.63083,0.84081
1.84188,1.53132,1.90713,0.12543,0.96289,1.2023,1.16152,1.1036,1.25874,1.93158,1.36225,1.01044,2.30586,1.52062,2.7384,2.10441,2.06138,0.96316,0.63313,0.71101,1.50371,1.05162
1.61977,1.4325,1.73714,0.12192,1.06489,1.17438,0.75776,0.93104,0.97638,1.04547,1.48588,0.53057,1.31083,1.16897,2.05914,1.56136,1.45328,0.68014,0.63362,0.6767,1.14704,0.76219
1.61965,1.34233,1.67076,0.11098,0.99776,0.97341,0.73531,0.70612,0.78798,0.89345,1.39593,0.51379,1.04942,0.95092,1.21764,1.1652,1.2502,0.56207,0.71964,0.50908,0.67306,0.60293
1.58769,1.56082,1.86094,0.10545,1.21476,1.52592,0.83587,0.96984,0.9455,1.23553,1.69808,0.62704,1.10506,1.1544,1.40296,1.62483,1.48992,0.54875,0.60717,0.75566,0.79296,0.89893
1.66195,1.76045,2.24207,0.10911,1.4855,2.01687,0.91937,1.23773,1.18265,1.91999,2.37259,0.52732,1.45409,1.36739,1.26411,2.09276,1.76893,0.54422,0.61482,0.75288,1.1571,1.02689
1.2902,1.23859,1.4058,0.13441,2.28132,1.93349,1.01939,1.24232,2.01819,1.77184,2.0894,0.5107,1.33991,1.0749,1.3202,1.46842,1.28228,0.55764,0.54774,0.6746,0.80214,0.77777
1.26326,1.08551,1.21611,0.1036,1.18598,1.40366,0.69262,0.72733,0.90386,1.14416,1.47305,0.41154,0.95797,1.00741,1.06531,1.57685,1.36248,0.50609,0.53628,0.58696,0.45963,0.79181
1.31008,1.0986,1.37663,0.11118,0.84249,1.01026,0.5759,0.69447,0.75059,0.79751,1.25549,0.42309,1.08162,0.91357,1.2946,1.18117,1.42647,0.55882,0.44001,0.56466,0.53893,0.60459
1.04203,0.97998,1.09734,0.13045,0.70456,0.86723,0.56169,0.65993,0.69561,0.81529,1.01831,0.37536,1.34305,1.24827,1.33688,1.17467,1.18011,0.55256,0.63641,0.62409,1.09838,0.66155
1.26455,1.77395,1.50056,0.12691,2.11274,2.4281,0.98926,1.26539,1.40357,2.23103,2.05564,0.46216,1.53286,1.76777,1.58537,1.63976,1.41574,0.63495,0.65788,0.79554,1.40711,0.95049
2.09247,2.04954,2.35631,0.11257,2.45366,2.83843,1.09699,1.59534,1.8427,2.77981,3.07091,0.46198,1.77784,1.36818,1.51642,1.59049,1.54515,0.8256,0.79607,0.89628,0.77324,0.90147
1.10356,0.87021,1.14187,0.10737,0.68366,0.71638,0.47601,0.52411,0.63252,0.73322,0.93209,0.34643,0.85013,0.71316,1.01587,0.96834,1.09843,0.47355,0.43575,0.40933,0.54139,0.51799
1.73995,1.17361,1.43514,0.11779,1.35169,1.13599,0.83542,0.79768,0.9803,0.92389,1.24803,0.53638,1.17545,1.20368,2.10112,1.56316,1.61091,0.54225,0.80581,0.65193,1.13311,0.75681
1.14322,1.07624,1.23923,0.13582,0.83217,0.97046,0.54032,0.80279,0.74207,0.89352,1.27357,0.36753,1.30417,1.12776,1.34893,1.36919,1.31838,0.53868,0.65507,0.76313,1.37487,0.79392
1.47755,1.3448,1.43996,0.13249,1.41106,1.37424,0.74125,1.09223,1.07459,1.20495,1.62176,0.42511,1.54018,1.26445,1.60722,1.57568,1.17822,0.69105,0.77095,0.68669,1.45981,0.99903
1.2182,1.29315,1.28229,0.09909,0.88258,0.93046,0.44748,0.61819,0.75142,0.83228,1.24039,0.33663,1.80398,1.05972,1.31646,1.42573,1.39494,0.46658,0.49971,0.54304,0.67797,0.70824
0.95517,0.92698,0.98067,0.0968,0.64665,0.74373,0.39951,0.53408,0.56826,0.72723,1.0035,0.30923,0.70245,0.71566,0.9374,1.20331,1.17399,0.44101,0.43082,0.51159,0.45783,0.65767
0.93704,0.97839,1.10158,0.1005,0.73187,0.8668,0.50711,0.64923,0.66843,0.77933,0.98555,0.35531,1.22723,1.23341,0.8922,1.13663,1.1528,0.51906,0.50238,0.51698,0.6088,0.65662
1.97412,2.28738,2.1603,0.15399,1.60688,2.19214,0.74435,1.34629,0.85119,1.30273,2.23155,0.41157,1.37322,1.84956,1.36952,1.97704,1.59461,0.59324,0.7167,0.86376,1.27312,0.95337
1.33852,1.27486,1.54111,0.13768,1.27201,1.26559,0.75407,0.96101,1.105,1.29559,1.36852,0.41614,1.71749,1.49596,1.56142,1.51628,1.50284,0.55717,0.65134,0.5727,1.24528,0.92251
1.17218,1.19388,1.24457,0.12195,1.21411,1.13831,0.72159,0.68637,0.78431,0.86333,1.35758,0.38347,1.06285,1.14593,1.30787,1.54263,1.23754,0.52273,0.62424,0.50313,0.7121,0.68174
1.27006,1.13522,1.59175,0.09811,1.0122,1.013,0.68352,0.80933,0.85548,0.99932,1.41128,0.38825,0.86983,1.06687,1.0542,1.30127,1.35382,0.63215,0.58718,0.65686,0.55559,0.7625
1.59984,1.48681,1.83114,0.11722,7.10452,6.70221,8.36389,2.4016,108.47689,80.5899,7.97516,24.70974,1.50012,1.16445,1.55602,1.35176,1.54466,11.93231,0.85298,0.62562,0.78673,0.69504
1.59861,1.28294,1.65926,0.12275,1.21284,1.17918,1.4985,0.91491,3.80949,1.77834,1.51269,1.57416,1.43648,1.09753,1.70423,1.48315,1.70171,0.8054,0.69963,0.60189,1.31978,0.8139
1.54357,1.41551,1.6098,0.16417,1.20735,1.48582,1.01931,1.15345,3.85301,2.58269,1.48149,0.51458,1.36214,1.29013,1.54391,1.56887,1.7626,0.68345,0.6566,0.77172,1.23059,0.91938
1.50727,1.42982,1.46924,0.172,1.31646,1.52532,0.92346,1.18454,1.13667,1.36545,1.46494,0.52304,2.12696,1.77307,1.81057,2.19058,2.08172,0.63342,0.75146,0.98803,1.01264,1.14156
1.39058,1.44994,1.50072,0.10276,0.7873,1.16825,0.71143,0.77102,0.63064,0.89335,1.23427,0.4535,1.26851,1.53637,1.40746,2.1374,1.83436,0.55714,0.83307,0.78808,0.7003,1.0728
1.27381,1.11686,1.37221,0.10614,1.39355,1.09918,0.85733,0.7144,0.89858,0.83508,1.22516,0.49077,1.03369,0.9899,0.98574,1.33658,1.29175,0.5199,0.62046,0.55224,0.52865,0.63852
2.09483,1.55757,2.02293,0.14021,1.58833,1.42951,1.1682,0.85216,1.01558,1.24974,1.8196,0.60182,1.80497,1.22143,1.948,1.71486,2.00723,0.58004,0.80619,0.76143,1.19531,0.93258
1.61134,1.48511,1.66913,0.1558,1.4473,1.40187,0.99724,1.02747,0.94161,1.15803,1.78668,0.4435,1.55989,1.22014,1.34746,1.25436,1.37613,0.60383,0.7548,0.78274,1.27794,0.71497
1.7349,1.13753,1.5533,0.13989,1.80892,0.96393,0.94837,0.66019,0.76416,0.798,1.37812,0.34751,1.0266,0.92703,1.38384,1.25686,1.47562,0.52637,0.7561,0.61643,0.59089,0.72274
0.99985,1.02167,0.97911,0.15082,0.90439,0.93792,0.6949,0.83699,0.67253,0.82127,1.07041,0.34494,1.65992,1.18542,1.05884,1.1541,1.10097,0.50228,0.56644,0.75025,0.61778,0.77854
1.04637,1.1277,1.1564,0.11506,0.93952,1.21029,0.5256,0.69687,0.7117,1.08102,1.39945,0.2979,0.7084,0.67302,0.87631,0.95313,0.90776,0.46577,0.47607,0.52397,0.49363,0.55576
1.12193,1.0807,1.30497,0.11858,1.07586,1.43385,0.58556,0.8766,0.84844,1.29469,1.51115,0.31134,0.89804,0.757,0.95628,0.93663,0.98201,0.52298,0.56579,0.57214,1.02968,0.57737
1.43344,1.46201,1.64839,0.23107,0.82571,1.44261,0.57114,1.06702,0.84705,1.37696,1.36031,0.30117,1.90707,1.43734,1.54663,1.84408,1.7051,0.47936,0.55995,0.80655,1.34158,0.95814
1.71262,1.71979,2.16349,0.13295,1.66056,1.16975,0.95211,0.65474,1.13306,0.95968,1.55176,0.42272,2.54165,1.79994,1.72997,1.80686,1.86644,0.50174,0.74686,0.62378,0.95989,0.88746
1.68694,1.60478,1.89688,0.16583,1.83805,1.68535,0.80592,0.93288,1.31626,1.20312,1.74846,0.43983,1.68914,1.48252,1.92947,1.69267,1.77124,0.52633,0.55855,0.56909,0.74158,0.76302
1.29099,1.48052,1.61031,0.10462,0.89296,1.18319,0.56491,0.70698,0.75306,0.90786,1.36367,0.31092,1.19164,1.05938,1.12793,1.5154,1.64873,0.44861,0.46941,0.55555,0.55028,0.67139
1.19639,1.04766,1.22147,0.11872,0.72721,0.91633,0.40921,0.66066,0.6244,0.83795,1.20909,0.3011,0.73772,0.86328,1.17423,1.14894,1.11076,0.46927,0.40211,0.54966,0.52227,0.61744
1.35542,1.32248,1.66067,0.14521,0.90023,1.27027,0.82613,1.34074,0.98393,1.3199,1.39828,2.09645,1.21775,1.29493,1.40122,1.57226,1.60826,1.18791,0.55752,0.75371,0.91407,0.94494
1.57587,1.38295,1.64799,0.15392,0.74981,1.19471,0.95441,1.53061,1.17124,1.51127,1.26291,1.60054,1.6498,1.47864,1.75865,1.77088,1.91338,0.91244,0.6256,0.84303,1.02837,1.04231
1.46333,1.42036,1.70791,0.11395,1.12228,1.19233,1.30044,1.05983,1.57057,1.55293,1.35465,1.94717,1.55271,1.24592,1.40652,1.61686,1.45635,0.9919,0.49769,0.68788,0.6966,0.83217
1.68005,1.57473,1.68962,0.11391,0.85918,1.29995,0.74041,1.28812,0.91221,1.40309,1.55054,0.98898,1.58012,1.35634,2.05784,1.78072,1.76079,1.15719,0.6308,0.69043,1.22091,0.88342
1.38281,1.41489,1.50555,0.13325,0.90506,1.39262,0.69342,0.9815,0.88034,1.2345,1.87705,0.5066,1.38064,1.40099,1.52128,1.79543,1.49883,0.5623,0.82115,0.71703,1.49947,0.89274
1.09262,1.00343,1.12687,0.10014,0.95642,0.932,0.6227,0.74364,0.76947,0.93083,1.27201,0.35607,0.91537,0.96836,1.12209,1.18282,1.03154,0.54264,0.46453,0.55253,0.52478,0.66663
1.34588,0.95891,1.23173,0.09453,1.04046,0.87543,0.60848,0.59333,0.81596,0.73721,1.24073,0.33238,0.98655,0.74865,1.09502,1.03926,1.06532,0.44499,0.47354,0.48456,0.43686,0.54064
1.19497,1.01351,1.06043,0.10653,1.08457,1.21743,0.7033,1.0002,1.23269,1.39636,1.43375,0.6552,1.22734,1.04508,1.29646,1.20398,1.05161,0.67396,0.47376,0.47345,0.67255,0.61686
1.15608,1.4096,1.37379,0.1304,0.97546,1.35218,0.67891,0.96,0.93989,1.18046,1.35214,0.62376,1.54249,1.36798,1.29249,1.75569,1.20104,0.65702,0.54194,0.74272,1.28569,0.95218
1.72165,1.39668,1.73009,0.14447,1.00868,1.32223,0.53,0.95602,0.8476,1.22594,1.70161,0.43262,3.45692,2.03148,2.57596,1.92607,2.33168,0.57947,0.66651,0.86419,1.89814,0.88577
1.866,0.94971,1.68959,0.11027,2.08426,0.83168,4.70275,0.55391,1.01568,0.90852,1.16896,0.47328,1.34016,0.84545,1.08236,1.02477,0.90248,1.12176,0.80133,0.5985,1.02049,1.0127
1.1573,1.21301,1.13586,0.11859,0.8846,1.17383,0.52825,0.69302,0.68626,0.84066,1.13644,0.48553,0.86674,0.70128,0.91364,0.79878,0.95579,0.85575,0.41834,0.50111,0.45422,0.45313
1.05542,1.06813,1.25585,0.09691,0.67456,0.94844,0.4275,0.66256,0.56984,0.82811,1.00337,0.47737,1.00478,0.87776,0.86214,0.88549,0.96718,0.89732,0.40019,0.44598,0.47624,0.61628
1.08171,1.04138,1.58775,0.1197,0.74077,0.82892,0.53041,0.57389,0.75406,0.80193,1.22096,0.60988,1.40104,0.99349,0.86782,1.02466,1.08306,0.87191,0.37301,0.42993,0.51318,0.62325
1.70055,1.5167,2.25738,0.09684,0.98229,1.00367,0.67441,0.78007,0.89128,0.97582,1.49082,0.94756,1.2041,1.05092,1.32351,1.33509,1.71655,1.00032,0.56309,0.46492,0.66102,0.73294
1.18127,1.02234,1.32082,0.10169,0.76469,0.9679,0.54696,0.70924,0.76901,1.02118,1.12207,0.59199,1.04139,0.87416,1.06618,1.12761,1.35708,0.96408,0.44641,0.43337,0.53121,0.63631
1.33348,1.46043,1.63322,0.09258,0.80069,0.90806,0.74242,0.74287,0.88537,0.98408,1.11688,1.17377,1.09477,0.92028,1.20216,1.14572,1.34312,1.00772,0.46292,0.54311,0.7349,0.71368
1.03678,1.10506,1.36124,0.10309,0.73283,1.02668,0.81688,1.26104,0.94605,1.26276,1.00933,1.5479,1.08507,1.01949,1.11862,1.26482,1.32809,1.3096,0.4185,0.5687,0.66231,0.77575
1.39468,0.99985,1.27883,0.09838,0.70018,0.93775,0.45437,0.72504,0.66359,0.7653,0.87865,0.4857,1.02802,0.96564,1.35515,0.98237,1.35947,0.90684,0.49617,0.45724,0.77065,0.59273
1.2681,1.29352,1.51168,0.09697,1.12658,1.24835,0.73083,0.67751,1.02544,1.17423,1.63799,0.56435,1.64713,1.23776,1.71257,1.40153,1.65529,0.89818,0.50609,0.60994,1.08068,0.9826
1.94425,1.6476,2.01231,0.09265,1.35783,1.36439,0.76445,0.74087,1.08448,1.19263,1.96718,0.7771,1.64386,1.51304,1.98286,1.99147,2.11433,0.90781,0.71173,0.56936,0.83252,0.94493
1.15448,1.26748,1.44422,0.09627,0.69224,0.9664,0.52798,0.80061,0.67618,0.95342,1.13234,0.51361,1.69878,1.35149,1.42311,1.40176,1.58339,0.91683,0.48096,0.72488,0.72083,0.91692
1.27483,1.21958,1.52563,0.09995,0.83075,0.87738,0.51851,0.62772,0.77886,0.82538,1.21139,0.50708,1.31217,0.96506,1.16194,1.09203,1.30139,0.80419,0.45307,0.45884,0.61752,0.63999
1.00579,0.96295,1.09708,0.09387,0.71733,0.98675,0.53797,0.58433,0.68746,0.87282,1.22625,0.4899,1.29922,0.94466,1.11188,1.37444,1.13875,0.82085,0.47292,0.46801,0.89628,0.75525
1.27886,0.98879,1.19507,0.08678,1.02257,1.14011,0.63867,0.65856,0.82226,0.98147,1.26404,0.5227,1.0731,0.65813,1.21776,0.86013,0.90605,0.83207,0.51897,0.40826,0.71355,0.49612
0.9857,0.94885,0.99597,0.09083,0.89905,1.02568,0.62468,0.66853,0.88981,1.05625,1.19095,0.52358,0.93919,0.8589,1.09021,1.04264,0.92345,0.84493,0.48515,0.46123,0.58485,0.629
1.07765,0.93799,1.03073,0.08139,0.66582,0.71907,0.50124,0.54728,0.57533,0.60187,0.75166,0.45239,0.99621,0.86285,1.13195,1.11721,1.19354,0.80319,0.4336,0.5025,0.54464,0.71697
1.0416,0.85183,1.06942,0.09207,0.55976,0.829,0.39477,0.54046,0.5072,0.75002,0.95135,0.39387,0.91273,0.86301,1.0735,0.97902,1.16559,0.79192,0.42671,0.44459,0.90884,0.52003
0.94215,0.84395,1.03918,0.08762,0.83125,0.78053,0.53815,0.69881,0.80945,0.82785,1.06221,0.54731,1.37967,0.98489,1.08464,1.14881,1.15767,0.81502,0.46312,0.47284,0.74369,0.63297
0.97981,0.89667,1.01861,0.09001,0.71977,0.86027,0.54205,0.63875,0.71178,0.76742,0.99889,0.51677,0.76865,0.67993,0.97061,0.99998,0.82978,0.80563,0.44694,0.43504,0.49856,0.5704
1.01129,1.0555,1.23537,0.09064,0.65896,0.75648,0.53375,0.57707,0.72604,0.83984,0.88027,0.5623,1.30996,1.04967,1.0533,1.47658,1.46896,0.8871,0.45822,0.45565,0.60611,0.75168
1.09856,1.01798,1.09302,0.09457,0.84344,0.79581,0.66276,0.52173,0.87445,0.8409,1.04551,0.71696,1.26348,0.91685,1.32487,1.31839,1.19566,0.84605,0.46914,0.48097,0.93993,0.7017
1.00599,0.78093,1.04774,0.09427,0.78928,0.74364,0.62745,0.55604,0.67499,0.77043,0.93765,0.51476,0.95219,0.86119,0.89214,0.91113,1.03665,0.79116,0.4264,0.4702,0.57457,0.71053
1.01986,1.02584,1.1663,0.08286,0.71941,0.89059,0.51921,0.58554,0.64151,0.82494,1.1124,0.45077,1.41219,0.9953,1.32887,1.04533,1.22665,0.84281,0.54509,0.39912,0.82614,0.68488
1.06465,1.10818,1.39495,0.09932,0.68523,0.90834,0.59801,0.79409,0.66823,0.91788,1.1109,0.83049,0.85237,0.90925,0.98451,1.06782,1.12097,0.95102,0.44839,0.55379,0.61173,0.63712
1.16515,1.12439,1.38925,0.21369,0.79073,0.9016,0.58744,0.78733,0.798,0.95714,1.04444,0.70629,1.21987,1.09541,1.28026,1.42144,1.35963,0.96922,0.53281,0.65487,0.89166,0.76497
1.13194,0.88179,1.10242,0.11885,0.58098,0.63526,0.49621,0.58687,0.72566,0.84861,0.81722,0.58718,1.16822,1.00353,1.13213,1.23045,1.38896,0.92443,0.42323,0.4547,0.5709,0.67417
1.12366,1.15063,1.3142,0.18004,0.70426,0.86765,0.50995,0.67808,0.75853,0.95558,0.92814,0.60374,0.97845,0.83979,1.0703,1.21285,1.44935,0.98647,0.36831,0.4639,0.54674,0.73475
1.0205,0.78049,0.99659,0.11955,0.5997,0.59927,0.44217,0.47484,0.73185,0.68003,0.73795,0.51665,0.83656,0.68711,0.94781,1.01698,1.07082,0.86072,0.37144,0.41507,0.61558,0.57755
1.21943,1.09484,1.31558,0.10447,0.75295,0.75506,0.57549,0.48679,0.80211,0.82049,1.03054,0.5631,1.21755,0.80322,1.07218,1.00585,1.16035,0.90322,0.45934,0.39622,0.57396,0.59162
1.38723,1.28552,1.62657,0.10202,1.00547,0.91821,0.98749,0.87374,1.78653,1.55236,1.31352,3.31381,1.30843,1.12049,1.33063,1.4587,1.73377,1.45555,0.56047,0.4729,0.69489,0.72145
1.33664,1.12263,1.33808,0.0928,0.71812,0.87468,0.7331,0.59503,0.79609,0.91262,1.03321,1.20243,1.90601,1.43744,1.56584,1.78039,1.78479,1.11796,0.53807,0.4435,0.67124,1.04578
1.33736,1.11069,1.24761,0.09629,0.745,0.76261,0.49805,0.55702,0.62712,0.6668,0.85174,0.52858,1.24101,1.00541,1.3096,1.35805,1.3644,0.88869,0.49263,0.42245,0.89424,0.81612
1.56296,1.836,1.7,0.09995,7.88946,34.9402,1.71478,1.30417,23.3363,47.73677,1.41606,2.50027,1.29705,1.19118,1.35471,1.47252,1.60126,1.54424,0.87729,0.74391,1.77522,1.08265
0.96131,0.9754,1.02139,0.42061,0.76463,0.91262,0.80128,0.70347,1.08665,1.21804,1.02718,1.78898,1.03339,1.05158,0.82251,1.10542,1.07828,1.20345,0.4115,0.46622,0.46429,0.70038
1.14127,0.85991,1.1842,0.11065,0.79595,0.73604,0.91766,1.24073,0.9806,0.93593,0.85585,2.71379,1.1778,0.87733,1.04772,1.1586,1.53449,1.976,0.4753,0.52386,0.5829,0.72107
1.01621,1.07811,1.25753,0.10156,0.5698,0.8057,0.52433,0.68485,0.77113,0.89044,0.98548,0.66704,0.83078,0.70912,0.95726,1.25793,1.18679,0.96851,0.40398,0.50942,0.76817,0.71621
1.26431,1.60638,1.70972,0.09629,1.2148,1.40931,0.76735,0.81315,1.07598,1.37842,1.98716,0.63445,1.7844,1.76869,1.07539,2.51882,1.67831,1.06713,0.49132,0.58416,0.74449,1.24165
1.17839,1.11015,1.22291,0.11415,0.82028,0.90242,0.57904,0.6613,0.73261,0.8733,1.1323,0.6071,1.13622,0.92814,1.20855,1.22189,1.26146,0.96087,0.43442,0.54489,0.54481,0.79836
1.10955,0.91174,1.12034,0.09196,0.96221,0.96754,0.68045,0.92907,0.99461,1.17626,1.11791,0.95384,1.28017,0.77377,1.25545,0.95067,1.21149,1.05846,0.44407,0.42667,0.67655,0.65851
1.15371,1.19928,1.4166,0.09961,0.59321,0.93042,0.51992,0.88303,0.69905,0.99331,1.05582,0.93884,1.26084,1.0637,1.20962,1.38945,1.55018,1.08824,0.42839,0.54074,0.83169,0.64142
0.97186,0.78933,1.02224,0.10939,0.60096,0.66408,0.64895,0.60522,0.58791,0.72794,0.78366,0.90724,0.95799,0.86567,0.99713,0.8325,1.06561,0.91931,0.41115,0.46485,0.76086,0.6517
0.96623,1.04705,1.26352,0.12236,0.65565,0.91638,0.61006,0.90546,0.69644,0.94855,1.08364,1.6613,0.88795,0.82962,0.93009,1.18053,1.16691,1.44775,0.36553,0.56782,0.5475,0.66602
1.20833,1.11007,1.45008,0.11598,0.77151,0.96189,0.52025,0.62812,0.78939,0.8699,1.15553,0.66446,1.47914,1.07512,1.26223,1.4167,1.58818,0.9171,0.38892,0.50488,0.56185,0.85552
1.17443,1.29637,1.23826,0.08073,1.00951,1.07307,0.59066,0.61732,0.87277,1.03158,1.29044,0.7985,1.28451,0.98243,1.3769,1.40718,1.29091,0.90867,0.44599,0.49407,0.94965,0.75011
1.35479,1.29531,1.55724,0.10223,0.97086,0.93639,0.62033,0.64988,0.91403,0.84793,1.24578,0.62607,1.97929,1.13522,1.33175,1.3032,1.54018,0.8572,0.49993,0.47911,1.11986,0.76635
1.01456,0.89251,0.92511,0.10713,0.57317,0.81331,0.43734,0.52727,0.65751,0.85687,0.94757,0.46195,1.17808,0.91032,0.96424,1.45891,1.23238,0.87337,0.39881,0.43221,0.49217,0.77558
0.87102,1.09184,1.03026,0.10517,0.57602,0.69298,0.47279,0.51066,0.50416,0.6039,0.86947,0.50217,0.78892,0.80633,0.687,1.20076,0.88145,0.89721,0.47842,0.44106,0.39563,0.66974
1.12225,0.70959,1.03494,0.11067,0.76009,0.7393,0.49924,0.58408,0.64102,0.70903,0.93183,0.48719,0.77402,0.85882,0.96744,0.83311,0.77649,0.89294,0.45767,0.44481,0.93646,0.6181
1.47748,1.08141,1.28589,0.16307,0.7892,0.92265,0.52713,0.70065,0.7227,0.89248,1.17039,0.49456,1.57985,1.23125,1.53984,1.44008,1.51966,0.90688,0.46828,0.55044,1.28064,0.78359
1.14712,1.24305,1.39263,0.11948,0.95449,1.34426,0.5956,0.82127,0.85641,1.32428,1.16422,0.4737,1.21064,0.89936,1.47156,1.36426,1.51268,0.95538,0.52562,0.5517,0.72553,0.59452
0.9216,0.90909,0.96137,0.09115,1.13936,0.93442,0.63937,0.54071,0.86232,0.70063,1.10179,0.49968,1.09186,0.56326,1.04848,0.82015,0.88329,0.85919,0.40788,0.4718,0.60064,0.55837
0.82491,0.73178,0.85451,0.1086,0.71437,0.94143,0.4325,0.65926,0.59616,0.81666,0.93139,0.44119,0.94397,0.70858,0.82328,0.75967,0.88465,0.91053,0.339,0.42207,0.43709,0.49013
0.96022,0.86944,1.03589,0.09701,0.65901,0.77619,0.65292,0.73437,0.68548,0.88515,0.96123,1.52295,1.20946,0.99236,1.04581,1.0167,1.11374,1.17225,0.40517,0.53688,1.01701,0.6635
1.07578,1.06822,1.25946,0.11613,0.67228,0.81515,0.52993,0.63505,0.72259,0.99259,1.01674,0.86573,1.21355,0.93321,1.13194,1.45607,1.5827,1.00963,0.38548,0.46191,0.71374,0.77594
1.13042,1.09357,1.25539,0.09849,0.67903,0.95677,0.7132,0.82935,0.69745,0.93583,1.03511,0.87597,0.85548,0.92333,1.48879,1.274,1.19317,1.08424,0.59314,0.6337,0.6386,0.72741
1.37275,1.03989,1.3547,0.10218,0.83088,1.03175,0.60948,0.88973,0.83587,1.15435,1.26155,0.5487,1.04944,0.81565,1.17006,1.18622,1.25446,0.9488,0.49493,0.51669,0.78584,0.75203
1.21864,0.94525,1.11286,0.10225,0.71408,0.93291,0.79516,1.18623,0.77456,0.99077,0.88453,1.6532,1.37975,1.04189,1.2574,1.10034,1.47026,1.18121,0.52345,0.63734,1.29097,0.72362
1.35746,1.35368,1.65532,0.12565,0.83438,1.15159,0.65644,0.84536,0.8587,1.09879,1.46114,0.99188,1.57174,1.1467,1.3841,1.43408,1.33457,0.98149,0.45923,0.46355,0.72899,0.81616
1.17621,0.83684,1.21292,0.09216,0.65132,0.69231,0.484,0.48548,0.52865,0.69441,0.94121,0.41493,1.41621,0.98697,1.17317,1.34163,1.3239,0.64717,0.4658,0.40061,0.62318,0.81361
1.29243,1.2813,1.24364,0.09577,0.81102,0.88731,0.61628,0.59214,0.6426,0.75692,1.02766,0.4361,1.78788,1.14437,1.35944,1.60469,1.55214,0.66814,0.49392,0.54109,0.73296,0.74919
2.31555,1.45707,1.85079,0.1528,3.29492,11.50792,0.90712,1.02985,2.68069,5.9314,1.63585,0.60591,2.35156,1.78419,2.13006,2.11226,2.03987,1.0564,0.77305,0.78141,1.62497,1.31974
1.35769,1.38642,1.48713,0.15018,1.03364,1.3023,0.78189,0.70785,0.92236,1.10369,1.59073,0.56111,2.3544,1.33821,1.70906,1.88225,1.68916,0.75284,0.54823,0.54664,0.98007,0.84096
1.1365,0.94478,1.04896,0.11188,0.62132,0.76819,0.58043,0.52486,0.64592,0.82731,0.8883,0.46231,1.4012,0.89216,1.5101,1.41745,1.40254,0.69253,0.49361,0.49519,0.80355,0.86553
1.40794,1.2586,1.43181,0.11573,1.02153,1.06929,0.62096,0.62853,0.83562,0.97591,1.27011,0.50407,1.5609,1.42418,1.15168,1.89783,1.69071,0.70805,0.48618,0.52649,0.49618,0.99064
1.15177,1.29998,1.24426,0.53648,0.88942,0.93273,0.6151,0.63865,1.20796,1.10915,1.19729,0.45346,2.0761,2.17266,1.51836,2.53121,2.151,0.69224,0.53046,0.55117,1.34656,1.74076
1.72082,2.26418,2.40079,0.71995,3.61846,3.6327,1.03009,1.02021,13.35087,8.36596,2.34669,0.52434,1.76275,1.37389,2.00578,2.17967,3.01446,0.80157,0.70311,0.96129,2.0299,1.20781
1.64906,1.87839,2.38807,1.85107,1.53047,2.13672,0.90984,1.27148,1.82731,2.25007,2.50074,0.59378,1.34042,1.39956,1.24903,1.80836,1.96134,0.91948,0.66626,0.80209,0.65422,0.95609
3.19736,2.15566,2.36961,0.22979,1.25986,1.59523,0.70494,0.76561,1.06371,1.33934,1.81485,0.56042,1.34338,1.19299,2.71041,2.40922,2.84104,0.81086,0.77755,0.64954,0.8569,1.00591
1.68566,1.85862,1.84182,0.13178,1.35033,1.32548,0.77313,0.63905,1.01302,1.14185,1.89556,0.50248,1.54686,0.95465,2.61881,1.69931,1.71541,0.77961,0.58736,0.51973,1.08466,0.83407
2.38446,2.57461,2.48141,0.15147,2.21877,3.12495,0.9888,1.34394,1.57921,2.24028,3.10476,0.55307,1.64394,1.42192,1.75502,1.98273,1.90942,0.86164,0.62076,0.69697,1.31474,0.90518
1.83579,1.31577,2.24086,0.93213,1.14461,1.98417,0.6884,0.99374,0.9723,1.45631,1.87991,0.461,1.27421,0.83998,2.23536,1.23633,1.61355,0.89098,0.6291,0.71374,0.97112,0.68317
1.75126,1.71878,1.94383,0.63914,1.70362,1.99079,0.85789,1.01749,1.45381,1.63736,2.54062,0.66545,1.18739,0.97256,2.64239,1.90757,2.31366,0.93024,0.6049,0.69669,0.89367,0.74292
1.04862,1.09142,1.62487,1.19721,1.01661,1.02467,0.66986,0.65509,0.98626,1.12554,1.46352,0.55634,0.95275,0.83057,1.01956,1.31472,1.64411,0.74652,0.53524,0.52249,0.63059,0.66102
1.01115,0.95241,1.2503,0.57869,0.65886,0.8377,0.45928,0.52905,0.65099,0.82521,1.20589,0.38216,0.81067,0.78084,0.84351,1.0545,0.99919,0.70851,0.43112,0.46616,0.51192,0.66721
1.3536,0.98481,1.30531,0.2406,0.91127,0.93867,0.59443,0.65824,0.80764,0.78458,1.20068,0.40305,1.44789,1.00928,1.27354,1.06401,1.4606,0.67617,0.48465,0.55351,0.7668,0.62246
1.37438,1.31331,1.79202,0.24463,0.96852,1.19769,0.57464,0.69283,0.91138,0.9795,1.54035,0.41956,1.24507,1.00494,1.47622,1.0746,1.08385,0.70769,0.53554,0.53005,1.23339,0.65133
1.19116,1.13225,1.54397,0.2412,0.94771,1.09322,0.53495,0.65961,0.93791,1.03254,1.37965,0.43572,1.30925,0.99569,1.10169,1.39397,1.11663,0.77033,0.48591,0.46061,0.58555,0.62516
0.97854,0.9275,1.15942,0.28059,0.72847,0.78905,0.46741,0.46361,0.69517,0.70641,1.09926,0.37859,0.94644,0.72189,1.12604,0.94079,1.13611,0.69203,0.41632,0.36563,0.54046,0.4322
1.02699,1.03013,1.1648,0.29108,0.88931,1.28068,0.60632,0.61301,0.73403,1.07324,1.19441,0.42133,0.90353,0.67323,0.91234,1.21168,1.01409,0.67014,0.46646,0.41993,0.51014,0.65366
1.19312,1.43891,1.43876,0.26485,1.16146,1.59127,0.65669,0.83551,1.01696,1.32868,1.44044,0.45436,1.54592,1.78856,1.2419,2.21539,1.82153,0.75951,0.45616,0.524,0.61979,1.15712
1.91565,1.73867,1.81771,0.20976,1.19264,1.21899,0.68814,0.62105,0.88035,1.04709,1.4224,0.45224,1.64888,1.41439,2.51752,1.58478,1.81432,0.70838,0.59786,0.54636,1.47432,0.84288
1.3415,1.08025,1.14013,0.20318,0.84626,1.42324,0.51843,0.67865,0.7318,1.08861,1.19139,0.36082,1.33148,1.06923,1.71478,1.04757,1.34755,0.75716,0.52015,0.50589,0.84268,0.54143
1.32366,1.12809,1.56551,0.17751,0.79724,0.91907,0.46968,0.56603,0.61213,0.80506,1.22959,0.40057,1.35891,1.13603,1.63444,1.32525,1.50166,0.69437,0.50123,0.52189,0.69674,0.76893
1.00889,1.0755,1.14095,0.17544,0.57156,0.79783,0.47914,0.50101,0.49071,0.72185,1.01199,0.38736,0.99752,1.45675,0.93401,1.10804,0.93418,0.67847,0.39746,0.52397,0.48859,0.76219
1.49896,1.19333,1.6601,0.10185,0.83213,0.82847,0.61806,0.59106,0.69274,0.88129,1.13479,0.75046,1.60373,1.37036,1.59575,1.45142,1.7952,0.53466,0.51664,0.44345,0.77652,0.66522
1.0664,1.03741,1.2451,0.10914,0.66957,0.86609,0.64912,0.87975,0.62297,0.81629,0.91876,0.67238,1.06128,0.85213,1.3079,1.23768,1.33505,0.70642,0.44745,0.66022,0.60029,0.60976
1.27603,1.40033,1.48181,0.51287,0.79273,1.15075,0.58539,1.13361,0.82239,0.97673,1.10314,0.40336,1.28996,1.28879,1.10138,1.73916,1.50819,0.57187,0.4741,0.76553,0.73998,0.84236
1.13118,1.02363,1.00989,15.67983,0.73991,1.06225,0.68183,0.85921,0.78543,0.99119,1.05497,0.566,0.90453,0.89926,0.9211,1.0566,0.84224,0.63375,0.42927,0.59013,0.46291,0.7795
1.00377,1.04059,1.17814,9.84441,0.67246,0.83805,0.59266,0.66615,0.61259,0.69666,0.92899,0.42364,1.11429,1.19945,1.10348,1.46884,1.19608,0.53893,0.46031,0.63793,0.54696,1.11683
1.31194,1.38756,1.57916,4.32977,0.75053,1.1389,0.5111,1.11277,0.74549,1.07017,1.12531,0.39331,1.08095,1.00103,1.0527,1.19916,1.34941,0.59146,0.43959,0.85019,0.6629,0.69986
1.19661,1.30584,1.41828,167.99623,1.0832,1.9592,1.59485,3.70264,3.46317,1.91816,1.32872,2.59046,1.4457,1.2324,1.1529,1.45394,1.38816,1.63842,0.68469,2.12037,0.95452,1.02113
1.23269,1.46892,1.56152,0.83435,0.84464,1.19398,0.61524,0.83792,0.82258,1.20152,1.33943,0.39014,1.58226,1.35272,1.48458,1.38446,1.37789,0.70355,0.5661,0.61414,1.07552,0.68145
1.15575,1.22607,1.38791,14.89993,0.81733,0.97378,0.62255,0.71867,0.67637,0.89018,1.1556,0.53543,1.61657,1.19422,1.02907,1.297,1.50064,0.58311,0.49476,0.52366,0.55546,0.69899
1.62702,1.39396,1.54043,1.76926,1.11447,1.01393,0.56481,0.51357,0.90175,0.79813,1.32937,0.34345,1.21091,0.84977,1.81396,1.46517,1.74119,0.57174,0.5195,0.42198,0.76845,0.57156
1.31634,1.47876,1.54164,0.18461,0.84196,1.0103,0.55532,0.6727,0.81321,0.91994,1.26574,0.373,1.46221,0.91916,1.6297,1.98634,1.71121,0.58321,0.56158,0.60887,1.01812,0.87914
1.51413,1.41439,1.56489,0.10876,0.84606,1.01514,0.56942,0.63616,0.88633,0.90061,1.37814,0.35794,1.36038,0.85392,1.66932,1.40929,1.50328,0.59081,0.5775,0.56875,1.20064,0.71867
1.39864,1.34722,1.70011,0.11818,0.71622,0.97245,0.54211,0.57273,0.65568,0.80309,1.00658,0.3266,1.60039,1.23764,1.29547,1.88043,2.02169,0.5235,0.52128,0.48908,0.52285,0.75144
1.04605,0.97964,1.4008,0.15082,0.65603,0.87534,0.4392,0.53993,0.58179,0.77581,1.04962,0.33775,1.25416,0.91664,0.9906,1.01441,1.19303,0.54073,0.32785,0.40558,0.52188,0.54895
0.93435,0.95205,1.02815,1.14672,0.62023,0.71802,0.45314,0.47551,0.50584,0.58818,0.80549,0.29849,0.81348,0.65009,0.9426,1.08899,0.93893,0.47326,0.39453,0.41618,0.58047,0.58648
0.87952,0.66157,0.88035,18.93982,0.62227,0.63775,0.46532,0.42048,0.5331,0.63709,0.75782,0.34457,0.95925,1.0051,0.96077,0.76972,0.89904,0.49565,0.36716,0.36103,0.8608,0.51046
0.83305,0.83285,0.94732,5.74348,0.56928,0.6658,0.45269,0.48334,0.45417,0.61417,0.80093,0.31288,0.97285,0.95767,0.98475,1.07053,1.03447,0.46189,0.44005,0.37807,0.6419,0.72543
1.12405,1.04061,1.39191,0.36196,0.64719,0.68396,0.48116,0.50182,0.60825,0.70985,1.02221,0.36997,1.36536,1.42402,0.95497,1.56943,1.47718,0.52424,0.38348,0.47966,0.48616,0.84196
1.2311,0.99443,1.36159,0.26807,0.62511,0.82104,0.3951,0.58485,0.585,0.79648,1.08106,0.34053,1.35077,0.98669,1.05347,1.03318,1.39634,0.56854,0.41497,0.52883,0.54718,0.63026
1.09414,0.93225,1.067,0.15693,0.63202,0.74125,0.62812,0.80856,0.6987,0.73956,0.78244,1.55639,1.23457,0.98337,1.30026,1.38354,1.3298,0.85134,0.4744,0.48414,0.98703,0.81861
1.75415,0.89123,1.30675,0.10431,0.86588,0.80155,0.57863,0.58922,0.73109,0.85105,1.20561,0.44423,1.16036,0.86382,1.95162,1.37495,1.46182,0.5702,0.49757,0.49157,0.95542,0.80201
1.33264,1.19821,1.35839,0.12173,0.86536,0.94938,0.89926,0.95027,0.83537,1.04158,1.16339,2.28304,1.22854,0.78262,1.29928,1.54636,1.48893,1.03211,0.44119,0.61709,0.56618,0.84397
1.0936,0.93341,1.12093,0.11371,0.52589,0.86777,0.5014,0.79738,0.60155,0.9761,0.93702,1.39364,0.79925,0.67745,1.06947,1.13896,1.22211,0.91071,0.39678,0.53837,0.49212,0.63348
1.1344,0.99565,1.22106,0.10917,0.69573,0.82033,0.60069,0.6563,0.82535,1.02349,1.01177,0.8255,0.87748,0.88093,0.94435,1.18994,1.20594,0.56818,0.42394,0.49332,0.83788,0.75421
1.33079,1.1956,1.56537,0.11818,0.75573,0.88922,0.62221,0.76906,1.32946,1.30542,1.0503,0.72126,1.19859,1.23186,1.16013,1.43016,1.47036,0.82384,0.46399,0.49637,0.70818,0.64513
1.37602,1.05939,1.52579,0.62095,0.88345,1.01986,0.98321,1.04486,1.97392,1.18942,1.06324,3.20309,1.30871,1.06631,1.22605,1.27293,1.48414,1.42034,0.47661,0.51935,0.65371,0.61876
1.37083,1.44711,1.61431,8.4477,0.7503,0.96791,0.77749,1.11763,1.09386,1.10555,1.06926,1.23729,1.77935,1.48941,1.43593,2.10438,2.23391,0.8499,0.48126,0.68648,0.96464,0.78765
1.38031,1.17761,1.20671,0.11908,0.74348,0.95947,0.5899,0.6388,0.78649,1.00179,1.29139,0.37277,1.30305,1.06043,1.09017,1.59169,1.25264,0.56,0.46463,0.49124,0.77819,0.6865
1.64385,1.4374,1.62896,0.1181,1.4903,1.05803,0.85803,0.66529,1.14158,1.05028,1.72311,0.50211,1.14243,1.1341,1.47002,1.35119,1.13971,0.61893,0.59979,0.54576,0.75131,0.69699
1.33723,0.90251,1.15367,0.09978,0.77354,0.80408,0.46175,0.60556,0.6876,0.75617,0.98671,0.33129,1.06198,0.82837,1.48143,1.3184,1.21004,0.56072,0.44068,0.44185,0.65655,0.79007
2.11537,1.75651,2.0827,0.09855,1.12159,1.54048,0.60877,0.88019,0.97095,1.35515,1.77546,0.41369,1.26557,1.09004,1.55664,2.38037,2.09266,0.67305,0.57703,0.54416,0.9182,1.00068
1.71778,1.67072,1.73512,0.10904,1.24225,1.21861,0.73982,0.66637,1.10887,1.17942,1.67452,0.51852,2.04005,1.35678,2.26646,1.52061,1.68159,0.53243,0.57956,0.54223,1.32486,0.73053
1.03568,1.14926,1.40126,0.10338,0.58913,0.74357,0.4601,0.53915,0.58129,0.74924,0.98718,0.2849,0.90908,0.68286,1.15687,1.376,1.2209,0.52045,0.39955,0.5153,0.56901,0.68018
0.80954,0.81535,0.99389,0.10876,0.62928,0.51934,0.5174,0.4508,0.56932,0.58576,0.75121,0.34013,0.79861,0.83727,0.82988,1.0721,1.0582,0.46324,0.36447,0.42093,0.53584,0.62445
1.05244,1.0039,1.21733,0.08896,0.60142,0.83896,0.44423,0.60471,0.71111,0.85126,1.01629,0.31676,1.19779,0.89484,0.86904,0.97903,1.13693,0.51671,0.42774,0.44348,0.7547,0.59774
1.14846,1.05704,1.33943,0.11021,0.63305,1.00221,0.53263,0.63294,0.985,0.82473,1.02197,0.37253,0.88777,0.80159,1.31033,1.08156,1.33929,0.52355,0.48343,0.48628,1.07001,0.60582
1.83765,1.62976,1.98611,0.09963,1.18624,1.51116,0.61829,0.81276,1.01739,1.32466,1.91407,0.45856,1.40474,1.00145,1.95357,2.10897,1.98785,0.59126,0.52329,0.56554,0.75619,0.85825
1.00224,1.00746,1.11868,0.09641,0.76722,0.9476,0.63183,0.68575,0.81132,0.9347,0.99239,1.11189,0.84522,0.81127,1.03104,1.11693,1.26203,0.62008,0.4226,0.44935,0.51527,0.55976
0.84825,0.88636,0.95668,0.12302,0.66945,0.77207,0.49631,0.60821,0.67733,0.80841,0.8761,0.39565,0.94163,0.7716,0.92043,1.1512,1.2,0.5083,0.37334,0.44484,0.51536,0.59455
1.17279,1.00355,1.24558,0.12413,0.77041,0.9092,0.49204,0.65437,0.71261,0.97328,1.21046,0.37671,1.27192,0.91586,1.49697,1.24828,1.47912,0.56986,0.42923,0.50079,1.04399,0.767
1.19817,1.14485,1.38997,0.09587,0.76766,0.9125,0.49987,0.7102,0.75745,0.97702,1.1649,0.49005,1.35463,1.34152,1.13501,1.68334,1.42635,0.57424,0.46265,0.56631,1.00585,0.99478
1.17843,0.98267,1.09609,0.09945,0.82501,0.82811,0.59664,0.59525,0.72621,0.80906,0.95112,0.58568,1.64015,1.06483,1.65337,1.26221,1.3947,0.5953,0.42588,0.46693,0.70224,0.64757
1.14449,0.86536,1.14681,0.09168,0.90978,0.72902,0.57921,0.52544,0.68618,0.65308,0.92711,0.382,0.80826,0.62397,0.86089,0.88704,0.97616,0.50511,0.43509,0.46181,0.39747,0.47277
1.14757,1.06417,1.22519,0.11205,0.83586,0.95236,0.499,0.61743,0.63958,0.80612,1.14663,0.31989,1.28338,0.96102,1.27555,1.41761,1.22482,0.52815,0.45345,0.4777,0.65019,0.59098
1.42359,1.07977,1.43315,0.11504,0.94745,0.95661,0.57199,0.60845,0.79771,0.79827,1.17888,0.37814,1.46055,1.00102,1.53755,1.36959,1.22552,0.48882,0.56425,0.52205,1.1817,0.73182
0.8346,0.76668,0.88133,0.24286,0.65242,0.68029,0.41254,0.46447,0.59882,0.62541,0.79898,0.31838,0.99344,0.92766,0.81302,0.82863,0.88343,0.46105,0.39114,0.40176,0.77061,0.53506
0.79108,0.69165,0.78018,0.16211,0.69512,0.67766,0.50862,0.56534,0.58088,0.73273,0.73986,0.31431,0.90491,0.68197,0.75305,0.69953,0.78954,0.4884,0.39897,0.39897,0.47205,0.49187
0.87721,0.83182,0.88992,0.11022,0.61024,0.74419,0.43502,0.53544,0.59789,0.70254,0.89107,0.32565,0.89661,0.70055,0.87536,0.79396,0.88439,0.47304,0.44121,0.44535,0.65028,0.49577
1.15677,1.17225,1.35,0.14631,0.70404,0.90229,0.58351,0.90208,0.83365,0.8901,0.97082,0.80673,1.32999,1.08014,1.35747,1.24544,1.35729,0.62403,0.51662,0.63155,1.06231,0.66907
1.22535,1.2168,1.38797,0.119,0.71995,0.8419,0.71893,0.82752,0.99089,0.99225,0.95651,0.95343,1.15221,0.79701,1.38572,1.26548,1.49748,0.67313,0.45027,0.47592,0.93735,0.58013
1.08544,1.25542,1.4264,0.09537,0.63562,0.88225,0.54595,1.0016,0.68504,0.81573,1.08722,0.79934,1.31764,1.34722,1.15745,1.39509,1.44119,0.71046,0.4069,0.4915,0.61496,0.53375
1.00888,1.11263,1.26011,0.10575,0.69859,0.98022,0.61079,0.87315,0.97913,1.15601,1.12177,0.71316,1.05177,0.99587,0.89482,1.25542,1.04047,0.81127,0.3873,0.53297,0.54187,0.87034
0.97492,0.97325,1.0758,0.11034,0.6482,0.73635,0.67434,0.6551,0.65156,0.8246,0.87643,0.7559,1.03244,1.17628,0.97638,1.38983,1.32121,0.59836,0.48124,0.55159,0.54287,0.95607
1.19009,1.62589,1.66456,0.11541,0.87109,1.37435,0.87149,0.93946,0.9166,1.29667,1.46818,0.96312,1.47747,1.15706,1.2396,1.58187,1.50596,0.66783,0.43621,0.70039,0.62704,1.00683
1.22043,1.03777,1.14813,0.09325,0.81309,0.94948,0.56569,0.60674,0.66298,0.81568,1.00381,0.46579,1.43173,0.83162,1.22211,1.27432,1.42378,0.57007,0.53751,0.53496,0.59204,0.80665
1.28012,1.31761,1.55806,0.11079,0.93708,1.12137,0.68286,0.87365,0.85051,1.02091,1.41882,1.03407,1.54928,1.39182,1.38248,1.65061,1.73514,0.75396,0.48091,0.61788,0.68272,0.84314
0.79965,1.05347,0.96787,0.09918,0.63314,0.76407,0.5554,0.58048,0.5569,0.68078,0.81404,0.49876,0.86252,0.84379,0.8962,1.14781,0.94524,0.52673,0.45768,0.61558,0.6044,0.6488
0.97621,0.91868,1.01957,0.1031,0.73686,0.88954,0.45251,0.55346,0.61722,0.80354,0.9621,0.33195,1.1075,0.95614,1.21198,1.02832,1.10417,0.48201,0.45513,0.41976,1.02309,0.60445
1.06105,0.94437,1.08756,0.09346,0.90277,0.97207,0.59284,0.71278,0.67005,0.81778,1.08502,0.37959,1.11587,1.18118,0.95235,1.1315,1.13884,0.54205,0.4594,0.50121,0.5295,0.63493
0.98037,0.91432,0.9408,0.09622,0.79842,0.81539,0.51737,0.56965,0.67479,0.77082,0.98942,0.32713,1.557,1.17617,0.92309,1.43748,1.09291,0.46914,0.39043,0.43018,0.40648,0.74003
0.85309,0.83681,0.98238,0.09333,0.64404,0.67753,0.45511,0.49332,0.56171,0.60516,0.82771,0.31615,1.4865,0.92458,1.06358,0.9799,1.10917,0.50021,0.43953,0.42022,0.56148,0.59029
1.02362,0.98931,1.10637,0.19985,0.63968,0.81941,0.53362,0.62354,0.61862,0.77989,1.00474,0.32966,1.2596,1.27233,1.02055,1.24645,1.19724,0.50738,0.539,0.62801,1.14946,0.80992
1.09335,1.02848,1.17702,0.2773,0.7191,0.97533,0.51796,0.68184,0.62113,0.81559,0.94265,0.31459,1.42476,1.06786,1.18926,1.15036,1.14224,0.49917,0.5114,0.65048,0.89187,0.72893
1.02995,0.82453,1.05863,0.0932,0.60982,0.62874,0.41697,0.4717,0.53047,0.60898,0.82835,0.32708,1.15944,0.78171,1.08074,0.96236,0.9819,0.49726,0.42741,0.42647,0.57584,0.66656
0.91227,0.59608,0.86599,0.09692,0.47518,0.53687,0.41253,0.45713,0.41231,0.56818,0.72353,0.29835,1.1374,0.71053,0.91065,0.66235,0.83713,0.4865,0.47173,0.37404,0.52665,0.6407
1.13059,1.20874,0.96179,0.10882,0.96698,1.40831,0.58915,0.89447,0.53291,0.92367,1.10298,0.28968,0.88658,0.80059,1.09162,0.8977,0.94197,0.5548,0.50393,0.59227,0.6087,0.47983
1.57817,1.39775,1.35299,0.15326,1.80783,1.38666,0.81717,0.75247,0.79309,0.753,1.46381,0.33035,0.99439,1.03559,1.04535,1.13697,1.08219,0.48575,0.68245,0.65872,1.06635,0.66457
1.65867,1.26482,1.56946,0.17059,1.36222,1.11154,0.67494,0.68172,0.93284,1.06563,1.7229,0.38424,1.50026,1.10859,1.59608,1.44503,1.56971,0.51935,0.54178,0.60386,1.10529,0.82599
1.08457,1.17104,1.21908,0.10234,0.88014,1.02282,0.47022,0.54557,0.71725,0.9021,1.25075,0.36798,1.30787,0.9397,1.1255,1.05032,1.24033,0.55394,0.4926,0.49251,0.72235,0.682
1.34823,0.8969,1.14308,0.10844,0.74348,0.77104,0.59354,0.51946,0.60054,0.69905,0.99201,0.36652,0.73281,0.52715,1.72007,0.85961,1.08205,0.5447,0.66555,0.5017,0.8243,0.54649
0.97222,0.799,0.95395,0.2165,0.7276,0.86768,0.59259,0.66639,0.62529,0.86433,1.02344,0.38923,0.87053,0.67162,1.08543,0.95937,0.96079,0.82175,0.50151,0.49871,1.0314,0.64593
0.89846,1.01502,0.92475,0.15374,0.94962,0.91003,0.59393,0.65091,0.64239,0.81136,1.1151,0.37951,1.17033,0.84243,1.0186,0.91058,0.95701,0.55114,0.45305,0.5523,0.99166,0.60335
1.4906,1.37229,1.17819,0.25083,1.61709,1.13107,0.7643,0.79192,0.86401,1.05799,1.79954,0.44558,1.46881,1.13741,1.56847,1.56553,1.26851,0.63287,0.61534,0.65803,0.70166,0.8686
1.03211,0.92793,0.96554,0.10457,0.71771,0.92375,0.55811,0.57073,0.58179,0.69894,0.87066,0.35925,0.84732,0.74337,0.97207,1.06491,0.92763,0.51317,0.45542,0.47574,0.48289,0.6367
0.7893,0.87759,0.86724,0.55585,0.71785,0.98454,0.45021,0.79963,0.60703,0.89961,0.91709,0.31154,0.75951,0.77891,0.81079,0.92208,0.82677,0.49112,0.45023,0.63599,0.47151,0.65992
0.92916,1.07382,1.05199,0.1198,0.63804,0.91212,0.3977,0.60596,0.55954,0.7749,0.99511,0.28936,1.00723,0.86488,0.95428,0.99907,1.0597,0.51203,0.40381,0.44196,0.91481,0.53371
1.14062,1.16833,1.20477,0.13133,0.78207,0.87954,0.55898,0.5895,0.57562,0.71696,1.09054,0.63047,0.99693,1.05583,1.00907,0.98564,1.06992,0.52108,0.47046,0.50911,0.7519,0.61059
0.97387,0.86693,1.14183,0.74539,0.62932,0.72937,0.48154,0.54773,0.52472,0.659,0.97404,0.3207,0.9631,1.01999,0.90988,0.90575,1.00791,0.46028,0.39633,0.48633,0.47328,0.58231
0.9518,0.93025,1.17842,0.34265,0.5984,0.80389,0.36647,0.63966,0.57157,0.77619,0.92159,0.28387,0.8086,0.78957,0.86961,1.04935,1.07771,0.5132,0.353,0.49464,0.45739,0.55397
1.00414,0.9607,1.18787,0.09622,0.6016,0.66614,0.42519,0.48898,0.6143,0.7331,0.90893,0.33095,1.08281,0.8174,1.14488,1.06267,1.25513,0.48249,0.41098,0.45011,0.52318,0.55917
1.12632,0.96506,1.21621,0.16757,0.65578,0.82476,0.48243,0.72625,0.63364,0.85889,1.02084,0.3477,1.35022,1.20886,1.14595,1.12536,1.15323,0.47815,0.44992,0.59791,0.81489,0.61027
0.97968,1.23288,1.20122,0.23876,0.74446,1.057,0.5934,1.01779,0.64975,0.87328,1.04707,0.3932,0.92762,0.90752,1.00765,1.2098,1.11112,0.65377,0.58684,0.82324,0.6579,0.80641
1.05312,0.99735,1.18766,0.2174,0.59948,0.90665,0.43809,0.79949,0.5499,0.84811,0.89767,0.31674,1.17326,1.0148,1.17533,1.08939,1.21037,0.5136,0.39462,0.69501,0.71517,0.77288
1.19024,1.07195,1.16929,0.21996,0.75225,0.83876,0.55441,0.7724,0.70863,0.74175,0.9549,0.41167,0.89696,1.04931,1.08282,1.33156,1.20119,0.48917,0.49638,0.75716,0.81421,0.88635
1.70908,1.49864,1.87525,0.22328,0.98332,1.31941,0.85321,1.42637,1.52222,1.71035,1.50169,1.61518,1.46148,1.60959,1.98934,1.97393,2.27893,1.11234,0.59347,0.86253,0.90745,1.22437
1.33217,1.31519,1.46651,0.17071,0.6952,1.21961,0.67393,1.20171,0.72247,1.12215,1.11936,0.65571,1.08178,1.18004,1.18025,1.33372,1.4047,0.76676,0.53716,0.81028,0.64197,0.92438
1.29319,1.30517,1.44702,0.10598,0.71034,0.89215,0.76305,0.75778,1.10342,1.05879,1.15156,1.36009,1.17606,1.12215,1.20969,1.55446,1.40183,0.70619,0.4899,0.58262,0.81772,0.83229
1.17108,1.11567,1.32025,0.16482,0.60791,1.06819,0.54413,1.09677,0.75526,1.23666,1.05631,0.71473,1.13929,1.04414,1.23875,1.32909,1.35776,1.05253,0.47779,0.73501,1.01746,0.80129
1.31197,1.1762,1.52047,0.11528,0.63029,1.05298,0.66555,0.92994,1.06847,1.28773,1.18292,0.69858,1.02338,1.15378,1.25742,1.36574,1.50935,0.7179,0.4797,0.60276,0.79421,0.82408
1.23287,1.2532,1.39973,0.09216,0.78131,0.94999,0.82763,1.01084,0.9648,1.01621,1.14655,0.60144,1.40145,1.09305,1.40322,1.74366,1.77426,0.59714,0.49227,0.62258,0.60749,0.8763
1.3368,1.24362,1.49949,0.1443,1.09625,1.2801,1.1264,1.20371,2.07577,1.99148,1.38333,2.38299,1.21184,1.01788,1.24995,1.30843,1.38372,0.70497,0.53473,0.70729,0.9473,1.02763
1.70236,1.60393,1.92158,0.09602,1.05986,1.47201,1.14691,1.31325,1.82683,2.15506,1.59739,2.52731,2.16926,1.59992,1.9485,2.07009,1.88796,1.1914,0.56438,0.62617,0.85572,1.05494
1.42698,1.54231,1.57631,0.10517,0.92477,1.11221,0.813,0.7404,1.03347,1.17188,1.31689,0.91203,1.49707,1.18377,1.29629,1.75852,1.34966,0.56319,0.54077,0.69622,0.62495,1.07206
1.92787,1.43799,1.72677,0.09505,1.1369,1.46491,0.74028,0.91508,1.00628,1.27032,1.35113,0.57577,1.47171,0.92589,1.62124,1.19336,1.54078,0.6136,0.53361,0.63847,1.18442,0.74436
1.65597,1.11287,1.49468,0.11421,0.89503,1.0002,0.59863,0.78556,0.76021,1.01297,1.34026,0.54023,1.74434,1.034,1.90567,1.24077,1.49283,0.61262,0.69292,0.6308,1.51919,0.7136
0.89523,0.76754,0.96024,0.07968,0.61821,0.67979,0.45105,0.47437,0.56986,0.7046,0.87996,0.32234,0.77059,0.64249,0.74316,0.96596,0.83879,0.46534,0.37571,0.46381,0.50584,0.59356
1.61784,1.28796,1.40523,0.09676,1.39652,1.81277,0.68705,0.9294,0.8999,1.29823,1.68773,0.35668,1.09608,0.84032,1.28624,1.11052,1.08836,0.55657,0.61333,0.52991,0.60394,0.54555
0.98558,1.2222,1.11546,0.09925,0.93542,1.25961,0.54753,0.83398,0.7609,1.09943,1.36363,0.34986,0.88343,0.63617,0.94874,0.99238,1.03314,0.57863,0.41821,0.53924,0.70477,0.61732
1.00054,1.08166,1.11487,0.11031,0.83273,0.93215,0.68585,0.63827,0.81518,0.92428,1.13331,0.44752,1.17305,1.04478,1.29592,0.96606,1.03657,0.52093,0.54988,0.54805,1.37505,0.67763
1.12826,0.93479,1.06956,0.11588,0.65129,0.85582,0.5298,0.59961,0.64032,0.79085,0.95401,0.35183,1.5019,1.05106,1.32513,1.18054,1.29579,0.4652,0.53611,0.51888,1.09987,0.75681
0.80148,0.71487,0.79295,0.09103,0.51459,0.6412,0.41424,0.47918,0.49465,0.59428,0.71329,0.3153,0.88815,0.9124,0.85718,0.80037,0.87769,0.47591,0.42786,0.34746,0.4927,0.68915
0.88737,0.72815,0.89567,0.07653,0.53837,0.58975,0.33649,0.42349,0.46153,0.53507,0.76995,0.27073,0.59992,0.53409,0.79408,0.77219,0.83449,0.47052,0.3924,0.32882,0.52569,0.45176
0.97882,0.87552,0.9863,0.10656,0.59277,0.75605,0.43855,0.70973,0.48334,0.71673,0.82199,0.52319,0.86404,0.78864,1.01122,0.8945,1.09776,0.67027,0.45426,0.43603,0.82521,0.54979
0.92781,0.79786,0.89767,0.1131,0.64163,0.84445,0.47054,0.67402,0.55731,0.83009,0.87133,0.33985,0.81391,0.84877,0.9009,0.81372,0.78777,0.50928,0.45827,0.50152,1.03624,0.52539
1.20888,1.22209,1.22646,0.09669,1.4445,1.25007,0.7685,0.75194,0.83845,1.05418,1.40678,0.35705,1.02407,0.989,1.24076,1.00882,1.36923,0.58441,0.58136,0.50428,0.55841,0.57181
0.82861,0.89444,0.91372,0.08161,0.52604,0.92025,0.42381,0.71182,0.50968,0.88722,0.92923,0.35025,0.99011,0.94838,0.88854,0.94799,1.01992,0.5563,0.39649,0.50198,0.47976,0.59981
0.77884,0.75751,0.8937,0.10328,0.60241,0.64664,0.41837,0.50184,0.55705,0.6133,0.8042,0.31393,0.67066,0.5964,0.70289,0.77269,0.75779,0.50974,0.38054,0.34444,0.45012,0.51939
0.84383,0.89359,0.9628,0.10508,0.54938,0.71046,0.38525,0.56358,0.54048,0.64628,0.70794,0.30167,0.93311,0.89632,1.07647,1.06643,1.14418,0.52355,0.38604,0.45472,0.78697,0.63199
1.01249,1.12333,1.29786,0.09726,0.73223,0.92639,0.72747,0.69954,0.72627,0.89933,1.0757,1.14953,1.54862,1.14095,0.97232,1.15822,1.21944,0.74175,0.43562,0.51149,0.74257,0.63293
1.03295,0.96102,1.15515,0.09501,0.7228,0.78421,0.66662,0.82371,1.01447,1.07123,0.94138,1.16307,0.99353,0.87916,1.02872,1.20724,1.18562,0.80996,0.45741,0.47899,0.50346,0.62085
1.10512,1.09535,1.0314,0.0939,0.80254,1.09352,0.77796,0.92632,0.78821,0.90987,0.93139,1.42651,1.37266,1.03,1.22228,1.36011,1.38073,0.89928,0.48572,0.64279,0.67905,0.75668
1.26251,0.99144,1.12248,0.1194,0.56543,0.79276,0.68615,0.69085,0.60146,0.82078,0.91278,0.99193,1.482,0.90355,1.54071,1.32619,1.38428,0.69055,0.63081,0.63981,1.04885,0.88847
1.18139,1.00563,1.23038,0.10793,0.69694,0.90282,0.50275,0.58391,0.69207,0.8844,1.08422,0.42528,1.09311,0.98833,1.23313,1.37259,1.2704,0.53899,0.49184,0.53605,1.01941,0.74261
0.98299,1.07669,1.19065,0.09349,0.71404,0.85924,0.51393,0.7554,0.69305,0.84325,0.96011,0.70665,0.99229,0.90131,0.90417,1.39561,1.29899,0.65627,0.39071,0.42911,0.48572,0.64407
1.11067,0.83908,1.15805,0.08274,0.78809,0.88355,0.40421,0.56845,0.71018,0.88743,1.11342,0.46517,1.00377,0.80143,1.46388,1.03368,1.19947,0.55488,0.40233,0.37695,0.64616,0.47657
1.3561,1.38125,1.4813,0.10204,1.25672,1.42833,0.611,0.73597,0.70145,0.92669,1.4853,0.33271,0.84169,0.74473,1.19075,1.16305,1.43,0.56374,0.53282,0.52581,0.54863,0.54661
1.24864,1.33867,1.58399,0.14991,0.99421,1.30082,0.58873,0.86937,0.86535,1.11431,1.7296,0.3742,1.07807,0.93056,1.36879,1.27413,1.10584,0.547,0.4968,0.68351,1.25056,0.7089
1.44799,1.16814,1.36346,0.15914,0.9927,1.06149,0.65648,0.73576,0.90013,0.90977,1.31264,0.41044,1.58535,1.30492,1.39838,1.52848,1.31302,0.55376,0.67937,0.60298,1.286,1.00105
0.76453,0.8342,0.88758,0.10801,0.57518,0.8251,0.39409,0.53116,0.51221,0.69549,0.88151,0.31873,1.48423,1.09452,0.96853,1.18773,1.34419,0.51516,0.40133,0.44096,0.50652,0.68703
0.69542,0.7937,0.7481,0.09142,0.65507,0.94593,0.45944,0.57711,0.58559,0.82722,0.98834,0.33299,0.73022,0.54337,0.85359,0.69964,0.75546,0.51329,0.37481,0.46319,0.4473,0.51447
0.77665,0.8829,0.74201,0.10037,0.66644,1.12929,0.56209,0.88347,0.53718,0.79439,0.93836,0.35606,0.70809,0.68356,0.82069,1.09615,0.79708,0.64719,0.5129,0.74784,0.5041,0.73768
0.96529,0.93895,1.0192,0.14018,0.77825,1.07424,0.57897,0.91188,0.76111,1.03329,1.15853,0.36523,1.13773,1.14755,0.97293,1.42847,1.12421,0.59285,0.55001,0.70671,1.30268,0.91365
1.25472,1.07445,1.32787,0.17875,0.89468,0.92249,0.63297,0.76366,0.85795,0.98751,1.20109,0.41591,1.58623,1.33914,1.28639,1.16793,1.45882,0.55194,0.59234,0.67562,1.31286,0.90118
0.84524,0.83003,0.91878,0.12885,0.52452,0.61784,0.43073,0.50311,0.49656,0.65503,0.70768,0.3213,0.9214,0.61783,0.95909,1.16615,0.98619,0.525,0.31692,0.4364,0.53581,0.63184
0.8829,0.53498,0.72543,0.09312,0.70224,0.62896,0.51412,0.48975,0.64626,0.66079,0.82244,0.35602,0.86174,0.6166,0.85224,0.88025,0.82269,0.54972,0.39144,0.45896,0.44864,0.60325
1.17721,1.05388,1.03567,0.09938,0.71899,0.92189,0.59833,0.77834,0.63697,0.6924,0.95459,0.36648,0.91989,0.88173,1.22815,1.5742,1.17325,0.6758,0.46442,0.66922,0.6467,0.7937
1.40425,1.18042,1.37952,0.14478,0.87554,1.03123,0.83857,0.78806,1.22562,1.01057,1.25991,0.8097,1.37232,1.15953,1.49634,1.36493,1.5454,0.61403,0.58224,0.69601,1.14189,0.83372
1.6289,1.28258,1.754,0.12653,1.12468,1.03367,0.79957,0.70093,1.34753,1.24133,1.59676,0.97238,1.64655,1.37877,1.62822,1.47216,1.60337,0.64665,0.63104,0.58163,1.14596,1.0776
1.30642,1.29987,1.65384,0.14308,0.83393,0.9444,0.81252,1.01576,0.97296,1.06074,1.07208,2.15772,1.18476,1.30097,1.34148,1.52993,1.53729,1.29845,0.5525,0.52477,0.64173,0.71984
1.03808,1.10002,1.43262,0.136,0.75284,0.91526,0.9701,0.88319,0.96891,1.07063,0.98364,2.65738,1.16179,1.09985,0.94985,1.22268,1.29115,1.17906,0.41881,0.53007,0.5166,0.71092
0.98675,1.09527,1.25801,4.47722,0.73165,0.88765,0.70756,0.7476,0.79613,0.87832,1.03272,1.47031,0.83131,0.84691,0.99283,1.02387,1.15664,0.83359,0.44578,0.50738,0.71251,0.64479
1.31648,1.06667,1.38988,0.14005,0.86754,1.21541,1.38054,2.07408,1.02038,1.59037,1.08077,5.38369,1.27977,1.13103,1.40649,1.44091,1.57142,3.42346,0.62495,0.74328,1.14192,0.96245
1.0712,1.02173,1.16549,0.25596,0.67603,0.91476,0.48809,0.7903,0.68781,0.98264,1.02178,0.85376,0.80066,0.6568,1.15572,0.96717,1.10508,0.86354,0.51821,0.5318,1.06819,0.5945
1.01426,1.06412,1.18083,0.16521,0.5882,0.86673,0.45736,0.55315,0.58636,0.84251,0.89741,0.39759,0.78119,0.64085,0.93798,1.01951,1.04985,0.48952,0.38826,0.50846,0.51015,0.57909
1.16893,1.31919,1.37475,0.20657,0.79392,1.11677,0.88304,1.08315,0.94525,1.31456,1.13234,2.10544,0.99686,1.05631,1.06183,1.46373,1.33186,0.97935,0.49285,0.69672,0.60246,0.82498
1.64625,1.5032,1.86321,0.18074,1.21905,1.46076,1.01088,1.22221,2.01872,2.39792,1.62262,1.89044,1.16579,1.0848,1.24178,1.5561,1.56782,0.90902,0.59473,0.65867,0.63135,0.82306
1.38363,1.63805,1.89405,0.09998,1.3224,1.21774,1.06555,1.19432,1.32711,1.26953,1.74129,2.61311,1.32177,0.89796,1.67832,1.43392,1.52986,1.44928,0.60972,0.58619,1.38336,0.78827
1.32708,1.36709,1.50659,0.12211,1.09704,1.07568,1.00839,0.90376,1.24558,1.29955,1.39186,3.2021,1.24836,1.18466,1.33693,1.49794,1.39715,1.2032,0.50424,0.63568,1.06985,0.9675
1.04857,1.1458,1.17439,0.09192,0.81712,0.94362,0.5792,0.65813,0.68036,0.93949,1.19336,0.57995,0.84724,0.83267,1.06929,1.55074,1.20253,0.61352,0.4136,0.532,0.5366,0.70906
1.20883,0.84933,1.1114,0.09373,0.77013,0.7868,0.77135,0.85287,0.89344,0.93465,0.95165,1.65229,0.95033,0.86645,1.13476,0.91395,1.10471,1.01641,0.46376,0.44555,0.59265,0.53576
1.07431,0.77982,0.97616,0.10046,0.62492,0.7813,0.48186,0.5992,0.54876,0.75655,0.93739,0.66291,0.95297,0.74005,1.06661,0.80559,1.06393,0.61159,0.36612,0.44073,0.54749,0.58987
1.36233,1.32084,1.3105,0.10483,1.09921,1.0125,0.67977,0.88224,0.99875,1.05365,1.43013,0.61014,1.55192,1.15762,1.60142,1.51941,1.41003,0.67028,0.52808,0.61236,1.26234,0.82
1.1168,1.03125,1.23428,0.13628,1.0849,0.95784,0.63693,0.66813,0.9158,0.98266,1.27066,0.40898,1.26153,0.80691,1.13881,1.4916,1.26109,0.49137,0.55312,0.58405,1.03495,0.85258
0.91265,0.74619,0.9347,0.13382,0.78362,0.65558,0.55747,0.49095,0.66753,0.72999,0.83906,0.39172,0.66168,0.57597,0.8524,0.88405,0.8485,0.49678,0.46424,0.45159,0.45718,0.52848
1.21083,0.94843,1.16649,0.09485,0.74737,0.71761,0.47609,0.49945,0.69263,0.80482,1.0576,0.37678,0.81282,0.68169,1.24379,1.10182,1.14418,0.50861,0.4453,0.39801,0.49371,0.49074
1.29529,0.99131,1.18046,0.10517,0.72667,0.82287,0.56222,0.72947,0.70547,0.80474,1.05242,0.71689,1.47545,1.07389,1.49796,1.37442,1.21604,0.60912,0.45919,0.53267,1.07446,0.73225
1.26021,1.37397,1.40365,0.11233,1.15824,1.29516,0.74735,0.78816,1.06355,1.21253,1.69864,0.81704,0.97421,1.10901,1.22718,1.42952,1.14716,0.62076,0.53441,0.67383,1.26282,0.97266
1.185,1.02327,1.15739,0.1028,0.78609,0.92419,0.58337,0.69414,0.7329,0.87469,1.11984,0.4714,1.58595,1.22152,1.43601,1.25037,1.24808,0.56848,0.45927,0.5268,0.77776,0.64793
1.16337,1.01428,1.22697,0.11469,1.09513,1.19444,0.68014,0.72253,1.04047,1.09003,1.41201,0.47096,0.99064,0.74409,1.44806,1.21432,1.26271,0.57646,0.53578,0.4448,0.68171,0.63425
1.08452,0.98737,1.1929,0.09731,1.06337,1.25249,0.60119,0.63663,0.75797,0.93797,1.28498,0.56727,0.78217,0.83268,0.8933,0.84366,0.89001,0.54763,0.49236,0.44544,0.50856,0.55417
1.23015,1.12732,1.31958,0.12503,0.66755,0.82254,0.64246,0.69867,0.74875,0.86804,0.90962,0.95052,0.9944,1.06391,1.16788,1.33442,1.43195,0.69191,0.44868,0.63382,1.09218,0.77075
1.67654,1.24124,1.43754,0.72632,1.07074,1.20629,0.71282,0.76603,1.1449,1.06392,1.474,0.65598,2.06057,1.1786,1.80179,1.48352,1.5628,0.63786,0.59695,0.72276,1.27745,0.97231
1.95025,1.4944,1.74542,0.1106,0.76258,0.84312,0.55637,0.51892,0.64386,0.74505,1.17688,0.41995,1.83779,1.55744,1.82217,2.02454,2.10608,0.59546,0.51958,0.46555,0.75093,0.91262
0.87309,0.81757,0.91757,0.10414,0.48389,0.74276,0.40984,0.50771,0.47448,0.68833,0.8222,0.39965,1.01046,0.87431,0.85075,0.86464,0.86898,0.64567,0.38848,0.39382,0.50006,0.49401
0.99702,0.98339,1.11697,0.10128,0.6113,1.02454,0.63002,0.62937,0.68011,0.79966,1.01713,1.01232,0.90983,0.76378,0.97129,0.86175,1.08693,0.7948,0.41818,0.45678,0.50668,0.55663
1.25035,1.24887,1.52359,0.09145,0.74811,0.98153,0.6283,0.7059,0.68473,0.95248,1.2058,0.87508,1.25807,1.283,1.14082,1.32649,1.42052,0.68917,0.49537,0.57347,0.67685,0.75005
1.28207,1.33572,1.61106,0.10617,0.85763,1.12262,0.83533,1.28732,0.9813,1.33569,1.16704,1.09792,1.53474,1.57321,1.23195,1.75935,1.56477,1.29029,0.83687,0.77542,0.74495,1.05021
1.365,1.40808,1.8234,0.28101,0.71515,1.27643,0.76032,1.17999,0.92782,1.3461,1.34435,1.70886,1.22976,1.01905,1.48358,1.37849,1.65198,1.16412,0.55718,0.69495,0.97265,0.80275
1.13481,1.20353,1.37893,0.11604,0.79689,1.09601,0.9516,1.16266,0.91564,1.20425,1.25866,2.38992,1.2675,1.15035,1.29432,1.4482,1.54012,1.37108,0.50997,0.83452,0.90262,0.90567
1.02372,0.92815,1.14439,0.09321,0.70773,0.68843,0.45578,0.60014,0.66685,0.7028,0.99365,0.44199,0.79679,0.88328,0.96007,1.07773,1.03588,0.67678,0.45586,0.51944,0.48081,0.68401
1.14257,1.01984,1.22466,0.09805,0.71714,1.19884,0.85986,1.514,0.87986,1.34067,1.04985,2.65662,1.02079,0.93987,1.0402,1.16781,1.25987,1.78915,0.45138,0.54451,0.56725,0.65196
1.11979,0.73369,1.1238,0.10181,0.74908,0.83344,0.47545,0.55432,0.62406,0.7602,0.98746,0.39447,0.83168,0.86959,0.92422,0.81123,0.93357,0.68744,0.42996,0.4214,0.55294,0.51498
0.96277,1.06079,1.08356,0.11567,0.68982,1.09878,0.64476,0.77038,0.7045,0.93272,1.02869,0.97843,1.12545,0.9735,1.18167,1.34813,1.01446,0.81374,0.41885,0.57086,1.04975,0.8238
1.14643,1.3202,1.19528,0.09612,0.69445,1.26,0.50526,0.97385,0.69317,1.05649,1.16949,0.94175,0.77997,0.95706,0.857,1.15414,1.18052,0.90999,0.4042,0.57432,0.59516,0.75391
1.16335,0.97789,1.12062,0.10376,0.86493,0.709,0.48427,0.48136,0.70846,0.70898,1.13328,0.41213,0.95936,0.78423,1.20621,1.37782,1.40996,0.62994,0.38934,0.43567,0.51878,0.6471
1.26702,0.98994,1.00369,0.10798,0.68376,0.92385,0.5155,0.61455,0.66185,0.77654,0.98118,0.44276,0.8459,0.86184,1.29866,0.93263,1.05855,0.67646,0.52963,0.55495,0.6291,0.68874
1.39654,1.18764,1.4771,0.11599,1.20116,0.96137,0.61253,0.5863,0.85184,0.84591,1.47727,0.45065,1.01511,0.88991,1.03756,1.16657,1.12931,0.6697,0.5067,0.51942,0.6099,0.67629
1.49632,1.25474,1.50134,0.13626,1.02645,1.42717,0.62793,0.75349,0.982,1.28441,1.72601,0.5101,1.5528,1.11623,1.6056,1.37597,1.60496,0.6658,0.55195,0.54685,1.32695,0.8196
2.1937,1.93638,1.67399,1.20099,1.15277,1.38716,0.8341,1.0335,1.10922,1.32583,1.64632,0.53883,1.76665,1.21898,2.75401,1.81925,1.89841,0.7905,0.6392,0.96728,0.90027,0.97805
3.39737,2.75857,3.92569,0.10535,1.14315,1.36746,0.65003,0.72915,0.91555,1.09392,1.72638,0.53865,1.56468,1.28215,2.5744,2.95529,2.78109,0.71744,0.75537,0.83025,0.96451,1.22923
1.63064,1.5334,1.48097,0.1061,0.93616,1.01732,0.56674,0.6224,0.70187,0.83438,1.16941,0.45349,1.30776,1.10401,2.13979,1.8678,1.87094,0.64722,0.57821,0.5758,0.79794,0.89004
1.37598,1.48495,1.68184,0.10462,0.84214,1.07111,0.53597,0.62663,0.91405,1.72739,1.20711,0.45342,2.03896,1.8796,1.75051,1.89894,1.68668,0.66005,0.45384,0.56628,0.76539,0.97818
1.67652,1.53427,1.42582,0.15565,1.03067,1.31432,0.62239,0.81163,0.89182,1.31115,1.35431,0.45094,1.69365,1.46453,2.07563,2.06099,1.99413,0.70615,0.60479,0.70845,1.32474,1.10232
1.69466,1.37339,1.84236,0.10255,1.06647,1.13612,0.58872,0.72518,0.91176,1.10098,1.55046,0.48498,1.27327,0.80294,1.94282,1.33563,1.62888,0.79771,0.57087,0.55832,0.9127,0.68551
1.4644,1.61114,2.12834,0.09563,0.97277,0.88103,0.75859,0.58263,0.71422,0.82686,1.02055,0.54155,1.10383,0.83514,1.46297,2.15392,1.86769,0.69378,0.68713,0.54562,0.65965,0.89511
1.30093,1.0011,1.69498,0.10265,0.8652,1.24529,0.48527,0.64936,0.75944,1.01328,1.50664,0.42598,0.77059,0.75962,1.38094,1.06991,1.27427,0.76104,0.40503,0.38691,0.54744,0.50011
1.44024,1.63557,1.85724,0.13555,1.17388,1.43284,0.62091,0.85012,0.87601,1.22915,1.7999,0.47181,1.16129,1.25791,1.21235,1.39303,1.21946,0.77057,0.59044,0.65304,1.19662,0.86377
1.59051,1.46624,2.12111,0.10759,1.07091,1.14889,0.57338,0.59742,0.85562,0.96476,1.49316,0.4078,1.61,1.38377,2.00198,2.15889,2.66855,0.67723,0.56027,0.54956,1.01419,0.83704
2.40854,1.51228,2.27553,0.0997,1.05381,1.30752,0.56469,0.77767,0.90901,1.24028,1.76942,0.48287,1.7348,1.23602,3.0494,2.08236,2.62568,0.82814,0.62438,0.5633,1.02401,0.96831
2.0914,1.89067,2.33558,0.10545,0.96526,1.15406,0.48601,0.63121,0.77844,1.00035,1.52045,0.4996,1.18587,1.24208,1.44959,2.37338,2.20886,0.72826,0.45196,0.56798,0.54466,1.15138
0.90455,0.84313,0.83734,0.11226,0.86944,0.78405,0.5097,0.54764,0.79111,0.69436,0.92731,0.38342,0.92585,1.10868,1.051,1.32567,0.84539,0.66613,0.42411,0.4675,0.60065,0.73541
