"C3","C4","CZ","F3","F4","F7","F8","FP1","FP2","FZ","LOG","O1","O2","P3","P4","PZ","ROG","T3","T4","T5","T6"
0.0999,0.02635,0.03505,0.08765,0.0848,0.0663,0.04935,0.05225,0.05255,0.0714,0.01625,0.0277,0.0248,0.02465,0.0275,0.0302,0.0291,0.01895,0.018,0.024,0.0163
0.0948,0.02018,0.02503,0.07419,0.06937,0.05253,0.04275,0.04106,0.04171,0.06056,0.01918,0.02269,0.02132,0.02507,0.02989,0.03555,0.019,0.02729,0.01089,0.02272,0.01583
0.07232,0.02245,0.03083,0.06122,0.05195,0.03006,0.02456,0.02801,0.02681,0.04865,0.12145,0.02281,0.02141,0.03018,0.02705,0.02673,0.03164,0.02954,0.0098,0.02171,0.01388
0.09881,0.02661,0.0352,0.04091,0.02806,0.0309,0.01937,0.02384,0.02298,0.02749,0.01356,0.02406,0.01836,0.0283,0.02979,0.03333,0.01641,0.0252,0.01265,0.02126,0.01562
0.07404,0.02913,0.03633,0.0558,0.03669,0.0308,0.019,0.02742,0.02266,0.04119,0.00822,0.02042,0.01999,0.03154,0.02535,0.02797,0.01633,0.02703,0.01186,0.02151,0.01478
0.08177,0.03495,0.04378,0.06803,0.06558,0.0323,0.03259,0.03219,0.03511,0.06411,0.00914,0.02375,0.0216,0.03091,0.02558,0.02769,0.01663,0.02109,0.01491,0.02551,0.01622
0.09531,0.04412,0.04827,0.04529,0.03818,0.02396,0.01781,0.01886,0.01933,0.03437,0.0133,0.02377,0.02636,0.03615,0.02583,0.02994,0.01813,0.02456,0.01872,0.02663,0.02033
0.08938,0.04042,0.05029,0.08868,0.05694,0.04072,0.02319,0.04339,0.0348,0.06647,0.01122,0.02482,0.02258,0.03853,0.02918,0.0393,0.01534,0.02032,0.01769,0.03083,0.01495
0.05925,0.02595,0.035,0.05474,0.04178,0.0337,0.01812,0.02752,0.02192,0.04163,0.00931,0.02937,0.02576,0.03424,0.03475,0.03245,0.01723,0.01725,0.01414,0.0282,0.01782
0.0716,0.02463,0.03073,0.17127,0.17356,0.06687,0.07199,0.07259,0.08076,0.16191,0.01325,0.0291,0.02418,0.02617,0.02617,0.03081,0.02389,0.02469,0.01252,0.02164,0.01794
0.09891,0.02827,0.03875,0.09961,0.06877,0.05153,0.03606,0.04786,0.046,0.07191,0.01087,0.0262,0.02542,0.02803,0.03493,0.03645,0.01742,0.02502,0.01201,0.02101,0.01729
0.08734,0.03974,0.04529,0.0404,0.02639,0.02631,0.01308,0.02429,0.01608,0.02631,0.00905,0.01873,0.01808,0.03869,0.02452,0.02803,0.01449,0.02803,0.01451,0.02741,0.01464
0.05849,0.03795,0.05148,0.0459,0.02613,0.03578,0.01507,0.02472,0.02048,0.03043,0.0081,0.02084,0.02174,0.02729,0.02202,0.02494,0.01567,0.01964,0.01307,0.02039,0.01502
0.08354,0.02664,0.04311,0.05328,0.03328,0.04223,0.01513,0.02527,0.02155,0.03655,0.00989,0.0203,0.01806,0.02864,0.03051,0.03702,0.01843,0.01795,0.01307,0.01875,0.01608
0.07212,0.02933,0.03422,0.05827,0.03067,0.04301,0.01593,0.02208,0.01756,0.03153,0.00855,0.0188,0.01409,0.02369,0.01985,0.02219,0.01569,0.01564,0.02122,0.01989,0.01068
0.07986,0.03345,0.03612,0.04989,0.0289,0.03252,0.01913,0.02306,0.01994,0.03076,0.00659,0.02239,0.01807,0.02872,0.02385,0.03016,0.01143,0.02178,0.01326,0.0253,0.01315
0.0666,0.02637,0.03293,0.06475,0.04774,0.06211,0.03205,0.04002,0.0372,0.045,0.00933,0.02181,0.02024,0.03249,0.02472,0.0318,0.01661,0.01266,0.01382,0.02628,0.01342
0.07628,0.04058,0.06251,0.06337,0.04959,0.04716,0.03591,0.03645,0.03054,0.04008,0.033,0.02306,0.02195,0.03886,0.03177,0.03456,0.01863,0.02101,0.01827,0.02783,0.01507
0.06773,0.026,0.03976,0.04657,0.02845,0.03264,0.01843,0.02438,0.01995,0.02845,0.01376,0.02362,0.02211,0.02934,0.03066,0.03317,0.01569,0.02216,0.01419,0.02714,0.01953
0.06304,0.04078,0.03445,0.05428,0.02989,0.03421,0.01454,0.02707,0.0198,0.03419,0.01007,0.02812,0.02431,0.0365,0.03475,0.04072,0.02203,0.01906,0.02072,0.03174,0.0185
0.06032,0.03145,0.02882,0.04077,0.0336,0.02642,0.01552,0.02144,0.01775,0.03427,0.0166,0.02794,0.02752,0.03128,0.03757,0.0361,0.02141,0.0191,0.0139,0.03191,0.02164
0.08705,0.05141,0.06269,0.0555,0.03822,0.02883,0.02118,0.02031,0.02359,0.04177,0.01623,0.02714,0.02369,0.04346,0.03074,0.03483,0.02166,0.0155,0.01682,0.02726,0.01476
0.06529,0.03896,0.05711,0.07973,0.05489,0.04884,0.02766,0.0341,0.02977,0.06311,0.00863,0.02784,0.02282,0.04987,0.0222,0.02737,0.01501,0.02343,0.01278,0.02969,0.01327
0.06528,0.05329,0.06354,0.06635,0.04832,0.04994,0.03209,0.03002,0.02675,0.04527,0.00724,0.01869,0.02316,0.05225,0.02791,0.03314,0.01493,0.02302,0.01801,0.03375,0.01737
0.09063,0.07007,0.07942,0.07383,0.04354,0.04755,0.02081,0.025,0.01913,0.04823,0.00904,0.02414,0.02462,0.04196,0.03004,0.03512,0.01457,0.01952,0.02359,0.02792,0.01374
0.10485,0.0355,0.0392,0.06552,0.04047,0.03884,0.01995,0.02958,0.02185,0.04309,0.0095,0.03397,0.02807,0.03676,0.0269,0.03178,0.01447,0.01955,0.01467,0.02529,0.01397
0.07762,0.03413,0.0417,0.05808,0.0471,0.03119,0.0216,0.0325,0.02571,0.04502,0.00845,0.02227,0.01804,0.03018,0.02303,0.03306,0.01712,0.0178,0.01307,0.02028,0.01417
0.10409,0.04572,0.04686,0.05444,0.04179,0.05076,0.01896,0.04601,0.03023,0.04403,0.01284,0.01796,0.01889,0.0471,0.02752,0.02817,0.02184,0.02294,0.01887,0.02705,0.01702
0.07277,0.03638,0.03918,0.04497,0.03641,0.03835,0.02574,0.04168,0.03385,0.03292,0.00586,0.02129,0.01944,0.02944,0.02854,0.03179,0.01471,0.01996,0.01539,0.02374,0.01894
0.08066,0.04203,0.04235,0.05002,0.03723,0.05129,0.05088,0.05006,0.05892,0.03826,0.00803,0.02376,0.02135,0.03415,0.02624,0.02651,0.01527,0.0207,0.01718,0.02092,0.01414
0.07665,0.03826,0.04521,0.06845,0.05029,0.04126,0.0418,0.03475,0.04374,0.04939,0.01294,0.02532,0.02201,0.04647,0.03218,0.04338,0.01533,0.02365,0.01529,0.029,0.01302
0.09773,0.03164,0.03693,0.05669,0.0412,0.05556,0.02721,0.05072,0.02867,0.03865,0.01066,0.02443,0.01771,0.03508,0.01966,0.02647,0.01643,0.02802,0.01478,0.02975,0.01427
0.08164,0.03421,0.03373,0.07088,0.03891,0.05138,0.02024,0.04035,0.03089,0.04564,0.01305,0.03072,0.02634,0.03068,0.0362,0.03728,0.01973,0.01664,0.01672,0.02525,0.02397
0.11461,0.04272,0.04892,0.0908,0.07209,0.05356,0.0336,0.0418,0.033,0.06703,0.00992,0.02865,0.02533,0.0479,0.03058,0.03034,0.0181,0.01728,0.02588,0.03083,0.01817
0.09487,0.02776,0.03934,0.0746,0.05726,0.04947,0.03342,0.03636,0.03287,0.05464,0.0113,0.02864,0.03013,0.04664,0.03605,0.0403,0.02149,0.02254,0.01608,0.0408,0.02414
0.07197,0.04314,0.0372,0.08377,0.05044,0.0576,0.02237,0.04088,0.02496,0.05227,0.00916,0.03519,0.02775,0.03933,0.03588,0.0469,0.02121,0.02121,0.02078,0.03705,0.01502
0.08876,0.04857,0.06134,0.07267,0.05025,0.05134,0.02366,0.03155,0.02557,0.05151,0.0104,0.03633,0.02959,0.0507,0.03678,0.04188,0.01891,0.02051,0.02875,0.03859,0.01788
0.07274,0.04019,0.04216,0.09141,0.0552,0.04981,0.02352,0.03281,0.02528,0.05981,0.01475,0.03523,0.03515,0.0373,0.05373,0.05841,0.03594,0.02155,0.01689,0.02719,0.02619
0.08291,0.041,0.05846,0.26786,0.23098,0.04725,0.04122,0.07636,0.06478,0.2666,0.01082,0.03008,0.02418,0.03744,0.02717,0.03789,0.01793,0.02261,0.01688,0.02984,0.01658
0.09896,0.03446,0.03754,0.08114,0.07345,0.03979,0.02826,0.04538,0.03722,0.08243,0.00815,0.02215,0.02052,0.03669,0.03389,0.03159,0.01669,0.01381,0.01478,0.0269,0.01663
0.07484,0.06092,0.07314,0.08646,0.05437,0.0423,0.01604,0.03503,0.02134,0.06756,0.01324,0.03306,0.02835,0.04578,0.03697,0.04301,0.01798,0.01777,0.02497,0.02743,0.01703
0.07142,0.0496,0.04447,0.04258,0.02972,0.03131,0.01513,0.02053,0.01616,0.03134,0.02097,0.02587,0.02689,0.03693,0.03858,0.03917,0.01754,0.01584,0.02747,0.03174,0.02154
0.08996,0.06565,0.07472,0.04766,0.0324,0.02541,0.01488,0.0222,0.01898,0.03366,0.14105,0.02803,0.02878,0.06958,0.04109,0.03645,0.05039,0.01763,0.02664,0.06491,0.02191
0.07285,0.03058,0.03827,0.12999,0.10116,0.04153,0.02452,0.04476,0.03219,0.12162,0.11141,0.03034,0.02804,0.0391,0.04136,0.03938,0.0298,0.02644,0.01498,0.03172,0.02021
0.05776,0.02345,0.03804,0.0485,0.03236,0.03351,0.01527,0.02177,0.01801,0.03751,0.04326,0.02705,0.02504,0.02995,0.03311,0.0278,0.02435,0.02173,0.01292,0.02136,0.01935
0.04534,0.04697,0.05069,0.04639,0.03206,0.02887,0.01448,0.02416,0.02069,0.03374,0.02672,0.02954,0.02993,0.03385,0.03252,0.03494,0.02702,0.03456,0.01686,0.02511,0.0219
0.04658,0.03403,0.04165,0.04713,0.04051,0.04244,0.02252,0.05002,0.0307,0.03787,0.02063,0.0286,0.02835,0.04097,0.03601,0.03782,0.02644,0.04167,0.01783,0.02648,0.02471
0.09113,0.03272,0.04476,0.05399,0.06175,0.04846,0.03706,0.0352,0.03525,0.04779,0.05735,0.03199,0.03034,0.03455,0.03888,0.04164,0.04333,0.02566,0.01679,0.02368,0.02012
0.08706,0.03841,0.03587,0.06717,0.05426,0.04349,0.03264,0.04083,0.03488,0.05264,0.08734,0.03651,0.02965,0.02802,0.03584,0.03456,0.06212,0.02258,0.01883,0.02092,0.0196
0.07114,0.02759,0.03078,0.07114,0.04237,0.04692,0.02291,0.0364,0.02977,0.04691,0.01544,0.04068,0.0347,0.02469,0.05478,0.05292,0.02371,0.03066,0.01459,0.02125,0.0237
0.06946,0.03179,0.04945,0.04996,0.03486,0.03753,0.01581,0.02923,0.019,0.03468,0.04753,0.02685,0.02322,0.04877,0.02767,0.02941,0.02317,0.0165,0.01647,0.02936,0.02137
0.07495,0.03311,0.04195,0.06605,0.04952,0.05804,0.02408,0.039,0.03094,0.05192,0.01319,0.03088,0.02577,0.03394,0.03119,0.0438,0.01712,0.01938,0.01523,0.02395,0.01736
0.09032,0.03052,0.03726,0.05538,0.0219,0.04069,0.01357,0.02624,0.01705,0.02946,0.02537,0.0347,0.03128,0.03262,0.03426,0.03442,0.02599,0.0162,0.01338,0.02307,0.01879
0.083,0.0313,0.03289,0.09408,0.07056,0.05145,0.03192,0.03993,0.03269,0.06795,0.01898,0.03047,0.02826,0.02941,0.04142,0.04627,0.02153,0.02318,0.01167,0.02057,0.01679
0.08552,0.03771,0.03846,0.09377,0.08005,0.05896,0.04226,0.0594,0.04891,0.07454,0.01809,0.02815,0.02739,0.0325,0.04841,0.05093,0.02151,0.02207,0.01936,0.0282,0.01903
0.05873,0.03634,0.04369,0.18452,0.15175,0.13344,0.07636,0.128,0.08569,0.15317,0.01369,0.04994,0.04124,0.03606,0.08034,0.07915,0.02866,0.02381,0.01565,0.02684,0.03785
0.08524,0.02328,0.02557,0.05412,0.04081,0.04127,0.02213,0.02684,0.02573,0.03982,0.00892,0.03125,0.03066,0.03233,0.0408,0.03715,0.01719,0.03072,0.01698,0.02618,0.02574
0.08373,0.02967,0.03683,0.08747,0.0631,0.04506,0.02306,0.02908,0.02558,0.0678,0.00984,0.02641,0.02095,0.03656,0.02425,0.03089,0.01654,0.0236,0.01553,0.02653,0.01213
0.08922,0.03345,0.03663,0.06159,0.04167,0.04063,0.02277,0.03225,0.02818,0.04389,0.01125,0.03083,0.02615,0.03563,0.02867,0.03545,0.01758,0.02377,0.01963,0.03078,0.01736
0.0639,0.04632,0.04403,0.11306,0.08441,0.0599,0.02761,0.04376,0.03884,0.09617,0.01066,0.02605,0.02548,0.04318,0.03554,0.03733,0.01929,0.01707,0.03055,0.03015,0.01879
0.09177,0.03598,0.04592,0.08282,0.05762,0.03945,0.02309,0.03357,0.03109,0.07323,0.04175,0.02923,0.03198,0.04322,0.03738,0.04699,0.0194,0.01614,0.01525,0.02525,0.02034
0.07546,0.03293,0.03113,0.06301,0.03874,0.04685,0.02427,0.02882,0.02336,0.03912,0.10216,0.0247,0.02891,0.03192,0.03009,0.03183,0.02245,0.01638,0.01718,0.02523,0.01955
0.08358,0.03671,0.05156,0.03677,0.02874,0.02958,0.01652,0.02079,0.01892,0.02905,0.22506,0.02527,0.02504,0.02976,0.02885,0.03056,0.06856,0.02393,0.01369,0.02033,0.0163
0.08887,0.05433,0.06471,0.05083,0.03474,0.0391,0.01928,0.02435,0.02104,0.0352,0.16228,0.02983,0.02898,0.03685,0.03934,0.0454,0.05379,0.01992,0.01917,0.0277,0.02123
0.08104,0.02732,0.03417,0.04665,0.02627,0.0353,0.0151,0.02022,0.01886,0.03178,0.04696,0.02785,0.02564,0.02523,0.027,0.03643,0.03942,0.0213,0.01155,0.02454,0.01701
0.07581,0.03839,0.04322,0.08478,0.04458,0.05638,0.03393,0.0422,0.03959,0.05031,0.01673,0.02289,0.02153,0.03518,0.02533,0.03388,0.01545,0.02006,0.01576,0.02417,0.01544
0.08248,0.02744,0.03442,0.08352,0.07582,0.05458,0.03872,0.03846,0.0415,0.068,0.00808,0.02406,0.02281,0.02828,0.03098,0.03072,0.01733,0.01315,0.01308,0.02777,0.01633
0.07646,0.03264,0.04917,0.05032,0.03288,0.03027,0.01899,0.01994,0.02061,0.03244,0.01379,0.03597,0.03366,0.04259,0.0317,0.03285,0.02194,0.01842,0.01212,0.03279,0.01843
0.07703,0.03181,0.0387,0.044,0.02746,0.02605,0.01439,0.01975,0.0189,0.02926,0.19487,0.02623,0.02787,0.03171,0.03986,0.03801,0.05116,0.02044,0.01341,0.03421,0.02229
0.08029,0.03461,0.04689,0.08292,0.05344,0.04583,0.02212,0.0383,0.02714,0.06275,0.04002,0.02488,0.02229,0.03416,0.0226,0.02909,0.02216,0.02135,0.01297,0.02572,0.01306
0.0804,0.02932,0.04303,0.05086,0.02727,0.03543,0.01466,0.02334,0.01624,0.03081,0.22415,0.02977,0.02971,0.04767,0.03336,0.03615,0.17886,0.02266,0.01466,0.03278,0.02307
0.07055,0.0476,0.04677,0.05815,0.04224,0.03003,0.01902,0.02267,0.01843,0.0486,0.02422,0.02385,0.021,0.02974,0.02417,0.02723,0.04149,0.02176,0.02192,0.02241,0.01877
0.098,0.04179,0.04683,0.08024,0.04756,0.0538,0.0238,0.03621,0.03519,0.05324,0.02857,0.03012,0.0248,0.03275,0.03047,0.03829,0.03081,0.01616,0.01741,0.02276,0.02504
0.12429,0.03571,0.04213,0.07245,0.05634,0.05522,0.03112,0.08243,0.07148,0.05762,0.05844,0.0304,0.02942,0.03146,0.0396,0.04759,0.0346,0.01358,0.01319,0.02561,0.01733
0.08997,0.03703,0.03196,0.05461,0.03653,0.03748,0.02896,0.05131,0.05416,0.03924,0.01149,0.0294,0.0266,0.03736,0.0474,0.03944,0.01932,0.02527,0.01667,0.03303,0.01959
0.1361,0.03884,0.04421,0.05642,0.03888,0.04999,0.03734,0.03066,0.02542,0.03025,0.00936,0.02335,0.01973,0.03424,0.02594,0.02775,0.01695,0.02303,0.01503,0.02422,0.0125
0.08813,0.02699,0.03847,0.04913,0.03769,0.04105,0.03904,0.0238,0.02908,0.0301,0.0109,0.02582,0.0246,0.03742,0.04658,0.05559,0.01788,0.02032,0.01163,0.02632,0.02091
0.09344,0.05743,0.07989,0.0456,0.03439,0.02731,0.0146,0.02447,0.02145,0.03355,0.01515,0.02918,0.02277,0.02999,0.02278,0.02873,0.02049,0.02425,0.01391,0.02528,0.01405
0.11412,0.03324,0.0432,0.06108,0.04132,0.04784,0.02572,0.02697,0.02126,0.04127,0.02278,0.0262,0.02926,0.0282,0.03226,0.03604,0.04655,0.02342,0.01437,0.02658,0.02352
0.08337,0.03687,0.05387,0.07736,0.07091,0.04794,0.02993,0.03583,0.02111,0.06206,0.01021,0.02738,0.0256,0.03639,0.02876,0.03093,0.01733,0.02147,0.01582,0.02778,0.01717
0.05807,0.03193,0.04782,0.04554,0.03625,0.02939,0.01745,0.02063,0.01856,0.03321,0.07355,0.02849,0.02693,0.03608,0.03489,0.03865,0.02534,0.02036,0.01513,0.02284,0.01949
0.06559,0.04646,0.07764,0.06468,0.03388,0.03875,0.01644,0.0318,0.01934,0.03727,0.13672,0.03579,0.02898,0.04243,0.03212,0.03364,0.04053,0.02115,0.01628,0.02741,0.01905
0.10373,0.04478,0.06904,0.07067,0.04802,0.05139,0.02098,0.03526,0.0248,0.05084,0.08478,0.03918,0.04179,0.03656,0.03716,0.04172,0.0786,0.01806,0.01253,0.02854,0.02605
0.09887,0.03482,0.05325,0.04765,0.04104,0.03711,0.0195,0.02588,0.02237,0.0387,0.16492,0.0363,0.02961,0.03563,0.03204,0.03461,0.05089,0.01659,0.01371,0.02194,0.01853
0.08274,0.02812,0.03387,0.08349,0.06266,0.04109,0.0197,0.03618,0.02911,0.06954,0.06307,0.02443,0.028,0.02858,0.03666,0.04007,0.02435,0.02273,0.00957,0.02211,0.02394
0.09206,0.03169,0.03892,0.06702,0.04581,0.04511,0.0247,0.03068,0.0271,0.0464,0.01027,0.02562,0.02474,0.03809,0.03408,0.03555,0.01607,0.02246,0.01435,0.03336,0.02167
0.06836,0.03881,0.04939,0.11809,0.09163,0.03868,0.03267,0.06385,0.05439,0.10093,0.0079,0.02363,0.01727,0.04419,0.02532,0.03168,0.01538,0.02371,0.01737,0.04012,0.01416
0.06144,0.04204,0.0446,0.06929,0.04906,0.02924,0.01976,0.02217,0.02322,0.0509,0.00939,0.02352,0.01889,0.03722,0.03168,0.03346,0.01728,0.02342,0.01799,0.0236,0.01872
0.10411,0.03076,0.04117,0.09965,0.08385,0.03675,0.0245,0.04216,0.03012,0.09,0.00985,0.02672,0.02664,0.03589,0.03641,0.03902,0.01594,0.02422,0.01974,0.03177,0.01959
0.12162,0.0547,0.05386,0.0483,0.02367,0.03548,0.01432,0.02021,0.01635,0.02575,0.00765,0.02948,0.02618,0.03973,0.03528,0.0404,0.02083,0.01692,0.0314,0.03841,0.0132
0.06856,0.03627,0.04612,0.05589,0.03092,0.03358,0.01732,0.02325,0.01958,0.03528,0.00899,0.0206,0.02023,0.04655,0.02378,0.02905,0.01475,0.02338,0.01541,0.03054,0.01362
0.10854,0.06558,0.11383,0.05263,0.03745,0.03177,0.02079,0.02057,0.02095,0.03693,0.00869,0.0278,0.0266,0.05358,0.03417,0.03895,0.01607,0.01962,0.02083,0.02835,0.01717
0.09394,0.06073,0.07617,0.04881,0.03644,0.03371,0.01915,0.02325,0.02155,0.03573,0.02819,0.02949,0.03243,0.02932,0.03662,0.04464,0.03098,0.01985,0.0189,0.01914,0.02114
0.07087,0.06805,0.09538,0.06189,0.04223,0.04107,0.02355,0.02802,0.02306,0.04613,0.03644,0.02345,0.02066,0.04275,0.02558,0.03232,0.02935,0.01915,0.01739,0.0269,0.01706
0.13015,0.10234,0.11608,0.07321,0.04876,0.06316,0.04047,0.04544,0.05322,0.05073,0.01008,0.03212,0.0303,0.04166,0.03083,0.03946,0.0149,0.01645,0.02404,0.02763,0.01854
0.1075,0.03921,0.04738,0.05342,0.03909,0.04892,0.0326,0.03983,0.03772,0.0393,0.0111,0.02991,0.02955,0.03471,0.03695,0.04355,0.02552,0.02583,0.01792,0.02439,0.01974
0.11204,0.034,0.03919,0.05042,0.0292,0.05149,0.02796,0.04605,0.03809,0.03115,0.11671,0.02355,0.02045,0.03797,0.02608,0.03502,0.03523,0.02413,0.01389,0.02832,0.01595
0.11701,0.02737,0.0407,0.0546,0.0584,0.04326,0.03304,0.03403,0.03484,0.04936,0.00848,0.02307,0.02075,0.03484,0.02588,0.03303,0.01948,0.02162,0.01377,0.02619,0.01618
0.08784,0.04829,0.05705,0.06552,0.04944,0.04097,0.03252,0.02767,0.02632,0.04675,0.00569,0.02822,0.02435,0.04022,0.02668,0.03227,0.01665,0.01656,0.02417,0.02678,0.01578
0.05424,0.03399,0.03954,0.04568,0.0272,0.0417,0.02171,0.02774,0.02093,0.02868,0.01063,0.03854,0.03127,0.0327,0.03963,0.04491,0.01798,0.01768,0.01282,0.02683,0.02468
0.06252,0.03642,0.0411,0.06918,0.04819,0.05126,0.02961,0.03254,0.03175,0.04884,0.01365,0.04309,0.05721,0.02331,0.03685,0.03802,0.02319,0.02229,0.01816,0.02003,0.03227
0.07061,0.04063,0.04521,0.1387,0.14029,0.06931,0.05805,0.07236,0.05706,0.12779,0.01327,0.03212,0.03034,0.03947,0.03223,0.03544,0.02142,0.01851,0.01529,0.02835,0.02751
0.074,0.0322,0.03363,0.06654,0.045,0.04885,0.03429,0.03066,0.03019,0.04629,0.02047,0.03311,0.029,0.03675,0.04641,0.04208,0.03281,0.01769,0.01833,0.02924,0.02079
0.11722,0.02986,0.03562,0.06338,0.03513,0.04509,0.02227,0.0273,0.0227,0.03573,0.0191,0.04312,0.03845,0.04538,0.05143,0.04746,0.03196,0.01809,0.01479,0.0363,0.02445
0.09734,0.03265,0.03903,0.27587,0.22283,0.08988,0.06836,0.11179,0.08311,0.23603,0.0108,0.02727,0.02819,0.04688,0.04281,0.05794,0.02051,0.02129,0.01932,0.03008,0.02007
0.07179,0.04106,0.0462,0.08788,0.07346,0.05135,0.02684,0.04666,0.03677,0.07753,0.0154,0.02829,0.02519,0.04893,0.03021,0.04284,0.02105,0.01821,0.0204,0.0339,0.0176
0.08216,0.02981,0.04393,0.10354,0.08252,0.04196,0.02158,0.03748,0.02793,0.09264,0.01153,0.02734,0.02508,0.03269,0.0341,0.04541,0.02476,0.02349,0.0145,0.02207,0.01874
0.08816,0.03245,0.04212,0.06317,0.04526,0.03646,0.02156,0.02799,0.02364,0.04686,0.01391,0.02754,0.02298,0.03396,0.04947,0.06313,0.01952,0.03027,0.01597,0.02286,0.01689
0.09934,0.02936,0.03716,0.06572,0.05983,0.03898,0.02436,0.02704,0.02342,0.05503,0.30852,0.02884,0.02766,0.04052,0.034,0.03802,0.1659,0.0186,0.01708,0.03361,0.02248
0.065,0.0318,0.03709,0.23613,0.248,0.05584,0.06707,0.07394,0.08287,0.24278,0.10944,0.03329,0.03259,0.02495,0.03432,0.04019,0.03388,0.01799,0.01784,0.01832,0.02096
0.07072,0.06801,0.07669,0.15373,0.12304,0.04503,0.03609,0.03707,0.03771,0.12966,0.1038,0.03002,0.02591,0.03032,0.02862,0.03705,0.07432,0.01709,0.01954,0.01674,0.0181
0.10685,0.06609,0.09108,0.06012,0.03467,0.04428,0.02033,0.02289,0.02249,0.0358,0.49102,0.03445,0.03593,0.0391,0.03944,0.04624,0.13242,0.01979,0.01915,0.03593,0.02604
0.07783,0.05443,0.07291,0.04935,0.03927,0.02732,0.02065,0.02696,0.02296,0.03763,0.14266,0.03117,0.02898,0.06085,0.0379,0.03938,0.04776,0.0213,0.02305,0.03963,0.01893
0.06629,0.05017,0.05221,0.06165,0.05065,0.04249,0.0262,0.03393,0.02621,0.05054,0.02831,0.02556,0.02649,0.06775,0.03649,0.03055,0.03729,0.01966,0.02127,0.04825,0.02469
0.07353,0.0519,0.05331,0.05191,0.03895,0.03411,0.02173,0.02917,0.02098,0.0387,0.03309,0.03428,0.03033,0.06959,0.03548,0.0374,0.03609,0.0192,0.02806,0.04489,0.01767
0.09387,0.04071,0.05457,0.04956,0.02124,0.04127,0.01201,0.0228,0.0147,0.02364,0.01302,0.02402,0.02675,0.0533,0.03248,0.03774,0.01948,0.0203,0.02569,0.04782,0.02134
0.08122,0.0344,0.03912,0.06005,0.03491,0.04886,0.01761,0.03091,0.02402,0.03757,0.07867,0.03902,0.03353,0.04177,0.03811,0.04169,0.02965,0.02205,0.01633,0.02769,0.02276
0.07611,0.03627,0.0389,0.12415,0.09887,0.04854,0.03484,0.0617,0.04252,0.10389,0.03309,0.0322,0.02627,0.04036,0.03659,0.03881,0.0203,0.01821,0.01683,0.03034,0.02281
0.07613,0.06993,0.09639,0.10892,0.06889,0.04004,0.01737,0.03271,0.02421,0.07832,0.02182,0.03191,0.02693,0.04005,0.03728,0.03969,0.02155,0.02324,0.01988,0.0271,0.02186
0.07708,0.0424,0.06518,0.05379,0.04499,0.03425,0.02069,0.02266,0.03272,0.04029,0.01166,0.02576,0.02443,0.0446,0.03449,0.0396,0.01511,0.02672,0.01665,0.02609,0.01676
0.05454,0.02931,0.05138,0.17367,0.19447,0.05112,0.05855,0.07296,0.08281,0.17505,0.00926,0.01973,0.01702,0.03922,0.02347,0.03165,0.01968,0.02603,0.01178,0.02523,0.01643
0.06497,0.0355,0.05041,0.06022,0.03857,0.03446,0.01879,0.02711,0.02461,0.04263,0.01015,0.02685,0.02729,0.03935,0.03637,0.03491,0.01985,0.02113,0.01351,0.02723,0.02148
0.06712,0.03088,0.0387,0.06065,0.03629,0.03092,0.01754,0.02149,0.02067,0.03801,0.00755,0.02033,0.02114,0.03035,0.02698,0.02622,0.02145,0.02511,0.01577,0.02159,0.01676
0.05984,0.04585,0.05234,0.1311,0.07768,0.07035,0.02839,0.05726,0.0357,0.09164,0.00849,0.02315,0.02261,0.03325,0.04808,0.04453,0.01601,0.03078,0.01603,0.02061,0.02168
0.08255,0.02598,0.03376,0.19351,0.11494,0.0965,0.04279,0.12149,0.05708,0.13576,0.00944,0.02687,0.02131,0.03687,0.03464,0.04667,0.02238,0.028,0.01273,0.0283,0.01741
0.07931,0.02853,0.03602,0.11657,0.10227,0.04218,0.03891,0.03571,0.04419,0.10228,0.0181,0.03503,0.03501,0.02663,0.06507,0.06538,0.03606,0.02024,0.01051,0.02104,0.02999
0.07795,0.02869,0.03933,0.06453,0.04621,0.03786,0.01899,0.02648,0.02402,0.04976,0.00964,0.04378,0.03628,0.02843,0.04773,0.05423,0.01953,0.0153,0.01325,0.02181,0.02455
0.07549,0.02884,0.0329,0.06187,0.03453,0.03539,0.01864,0.02528,0.02092,0.03975,0.0141,0.03342,0.03783,0.02789,0.04479,0.05142,0.01985,0.02148,0.01397,0.02296,0.02967
0.05938,0.02594,0.03461,0.04666,0.03447,0.02363,0.02004,0.02763,0.0323,0.038,0.01677,0.03887,0.03964,0.02689,0.05837,0.05021,0.02095,0.02061,0.01157,0.02026,0.03155
0.075,0.02323,0.02227,0.15253,0.10182,0.03887,0.0293,0.05124,0.04406,0.13069,0.01358,0.02974,0.0255,0.02148,0.03774,0.04555,0.0195,0.02165,0.01151,0.01945,0.01791
0.06242,0.02167,0.03081,0.08636,0.04341,0.04994,0.0202,0.04241,0.02722,0.05415,0.01082,0.0225,0.02238,0.02281,0.03479,0.03068,0.01835,0.02546,0.01071,0.01875,0.01834
0.06436,0.02651,0.0293,0.14858,0.15057,0.05,0.0483,0.04806,0.06104,0.14332,0.01215,0.02421,0.02636,0.02781,0.05002,0.04815,0.01909,0.02533,0.0135,0.01959,0.02124
0.05557,0.02373,0.0335,0.05579,0.03485,0.0325,0.01404,0.02409,0.02266,0.03552,0.01056,0.04662,0.04373,0.04079,0.0406,0.05309,0.0174,0.02008,0.01122,0.0295,0.01816
0.08298,0.02582,0.02747,0.07278,0.05382,0.03366,0.03242,0.03047,0.03176,0.05293,0.0127,0.02948,0.02442,0.02675,0.03825,0.04642,0.01944,0.0329,0.01146,0.0198,0.01734
0.09101,0.02308,0.03229,0.04101,0.02187,0.03387,0.01441,0.0199,0.01731,0.02286,0.01041,0.0309,0.02417,0.03278,0.02539,0.03763,0.0181,0.02566,0.01461,0.0277,0.01344
0.10226,0.03172,0.03556,0.09156,0.06531,0.04227,0.02832,0.0325,0.03064,0.07611,0.00945,0.0243,0.02152,0.03791,0.03203,0.03269,0.01759,0.02348,0.01457,0.03214,0.01557
0.06506,0.03861,0.04003,0.11571,0.09468,0.05761,0.02759,0.05711,0.04715,0.10253,0.0115,0.03262,0.02996,0.04174,0.03801,0.03761,0.01899,0.03797,0.01457,0.03086,0.01713
0.07028,0.04029,0.0514,0.13023,0.11082,0.04354,0.03259,0.03779,0.03199,0.11966,0.01136,0.03721,0.03825,0.04281,0.03254,0.03324,0.01634,0.02694,0.01482,0.03385,0.01739
0.08525,0.034,0.03656,0.09445,0.0775,0.04667,0.02876,0.03524,0.03216,0.07675,0.00906,0.02089,0.01629,0.03126,0.02351,0.02877,0.01703,0.02498,0.01537,0.02762,0.01189
0.06718,0.02477,0.03518,0.06747,0.03954,0.05158,0.02109,0.03948,0.02781,0.04348,0.0088,0.0226,0.01828,0.04481,0.02107,0.02379,0.01904,0.02167,0.01308,0.03519,0.01406
0.08054,0.04102,0.03968,0.08959,0.06635,0.04161,0.03676,0.03755,0.04054,0.07392,0.01059,0.02571,0.02084,0.03377,0.02536,0.02647,0.01525,0.03986,0.01627,0.02813,0.01472
0.07615,0.02806,0.0344,0.0686,0.03858,0.03056,0.02053,0.02724,0.02605,0.04422,0.0096,0.02083,0.02165,0.04707,0.02508,0.03323,0.01473,0.03365,0.01073,0.02989,0.01237
0.09008,0.01904,0.02662,0.06939,0.04384,0.03565,0.01785,0.02274,0.02238,0.04987,0.008,0.0221,0.02196,0.02969,0.02433,0.02127,0.01512,0.03557,0.0123,0.02315,0.01141
0.1354,0.04015,0.04398,0.0493,0.03052,0.03868,0.02009,0.02206,0.01971,0.03245,0.00884,0.02006,0.01761,0.0383,0.02162,0.02761,0.01568,0.01958,0.01341,0.02297,0.01356
0.10603,0.03575,0.04657,0.04505,0.0382,0.05429,0.02025,0.05171,0.0236,0.03811,0.00839,0.02395,0.02059,0.02914,0.02416,0.02419,0.01523,0.02035,0.01357,0.02236,0.01652
0.11268,0.04898,0.07233,0.04133,0.03964,0.05537,0.0238,0.03581,0.02852,0.03254,0.02544,0.03002,0.02665,0.0367,0.02657,0.03312,0.01773,0.022,0.01757,0.02361,0.01358
0.06716,0.02959,0.03776,0.04836,0.03335,0.03138,0.02142,0.02268,0.02734,0.03481,0.00993,0.0211,0.01773,0.02838,0.02543,0.02497,0.01764,0.02241,0.01244,0.02392,0.01367
0.06359,0.0275,0.04734,0.04594,0.02862,0.02936,0.01381,0.01986,0.02039,0.03017,0.0245,0.01991,0.01734,0.08269,0.02808,0.03192,0.02099,0.01761,0.01621,0.04547,0.01622
0.05577,0.05299,0.07994,0.05853,0.03594,0.03315,0.01707,0.02495,0.0196,0.03845,0.01522,0.02445,0.02284,0.04721,0.03214,0.03321,0.0223,0.01814,0.02093,0.03538,0.01808
0.04953,0.05626,0.0865,0.05124,0.04133,0.03392,0.02034,0.02382,0.0208,0.03944,0.02708,0.03262,0.02781,0.04144,0.02911,0.03707,0.01916,0.02179,0.0181,0.02558,0.01484
0.0842,0.03368,0.04833,0.07316,0.03841,0.04397,0.0197,0.02607,0.0219,0.0446,0.00924,0.03786,0.02624,0.05266,0.035,0.04029,0.01865,0.02766,0.01379,0.03553,0.01887
0.08192,0.02962,0.03854,0.05152,0.02924,0.03367,0.0179,0.02583,0.02236,0.03357,0.02145,0.02774,0.02503,0.03211,0.03557,0.0364,0.03064,0.01759,0.01547,0.02508,0.01884
0.07466,0.0481,0.05139,0.05906,0.05175,0.03912,0.04384,0.12883,0.14981,0.04757,0.01176,0.03184,0.02223,0.03231,0.02998,0.03123,0.0217,0.01679,0.01488,0.02053,0.01704
0.07507,0.04564,0.07046,0.0568,0.03746,0.0445,0.01992,0.03539,0.0259,0.03939,0.00781,0.02681,0.02581,0.03851,0.04335,0.04111,0.01866,0.01823,0.01282,0.02865,0.01974
0.04398,0.03163,0.03815,0.06048,0.04149,0.03822,0.02095,0.02823,0.02303,0.04185,0.00864,0.04073,0.02938,0.02834,0.03507,0.03911,0.01634,0.02059,0.01381,0.02884,0.01915
0.07232,0.05936,0.06919,0.0653,0.04146,0.03999,0.0241,0.03519,0.03562,0.04616,0.00904,0.02465,0.02515,0.03559,0.02328,0.02955,0.01843,0.0239,0.01847,0.02469,0.0224
0.05716,0.049,0.04655,0.05868,0.04091,0.03985,0.02802,0.02878,0.03108,0.03998,0.01045,0.02637,0.02803,0.02578,0.03557,0.0409,0.01689,0.01907,0.01749,0.01857,0.01731
0.06979,0.03894,0.04493,0.07119,0.03965,0.05355,0.03059,0.03764,0.03741,0.0418,0.0101,0.02683,0.02344,0.02963,0.03453,0.0352,0.01968,0.0228,0.01574,0.02744,0.01729
0.08475,0.07019,0.08322,0.05936,0.042,0.04362,0.0213,0.02949,0.02169,0.03661,0.00995,0.02838,0.02377,0.0299,0.02922,0.03613,0.02065,0.02256,0.01853,0.01894,0.01704
0.10552,0.04025,0.04597,0.06425,0.05716,0.03922,0.03266,0.03205,0.03001,0.05663,0.00885,0.02589,0.02447,0.0273,0.02865,0.03768,0.0184,0.02681,0.01539,0.02024,0.01584
0.12953,0.04815,0.06828,0.05242,0.03374,0.0448,0.01751,0.03286,0.0243,0.03353,0.01069,0.02613,0.02417,0.03739,0.03249,0.03844,0.01739,0.02263,0.01698,0.02335,0.01828
0.06765,0.07584,0.09094,0.06061,0.03067,0.03832,0.01674,0.02596,0.02302,0.03267,0.0171,0.05408,0.03722,0.04009,0.05866,0.06639,0.02729,0.02121,0.01983,0.02727,0.02804
0.06084,0.03913,0.0453,0.10075,0.0624,0.05899,0.02618,0.04848,0.03282,0.07651,0.01719,0.02852,0.02569,0.04145,0.04154,0.05593,0.02239,0.01906,0.01555,0.03354,0.02074
0.0906,0.09115,0.07668,0.0669,0.06146,0.03659,0.03058,0.03124,0.03086,0.05488,0.00989,0.03134,0.02423,0.04021,0.03236,0.04543,0.01551,0.0208,0.02443,0.03047,0.0171
0.0734,0.04696,0.05883,0.07548,0.05296,0.05888,0.0409,0.04351,0.03805,0.05572,0.01325,0.03066,0.02872,0.03515,0.02761,0.03678,0.01178,0.0191,0.02387,0.0259,0.01824
0.05272,0.05698,0.06604,0.06158,0.03891,0.06054,0.0218,0.03202,0.02004,0.04158,0.01472,0.0201,0.02469,0.05358,0.03994,0.03648,0.01531,0.0197,0.01887,0.02813,0.02119
0.06361,0.04983,0.05908,0.11716,0.07979,0.07695,0.04971,0.04571,0.04055,0.08586,0.01317,0.02815,0.02107,0.05577,0.03645,0.04343,0.01033,0.0174,0.02704,0.03459,0.01451
0.06577,0.0399,0.04145,0.10574,0.0785,0.05878,0.03235,0.06223,0.04745,0.08313,0.01192,0.02999,0.02276,0.03678,0.02808,0.02667,0.01515,0.02594,0.01899,0.02897,0.01562
0.10973,0.0318,0.03936,0.05988,0.03784,0.03854,0.02131,0.02566,0.02284,0.03822,0.00896,0.02365,0.02456,0.04513,0.02964,0.03623,0.01323,0.02218,0.01534,0.03244,0.01963
0.08165,0.04776,0.04675,0.1297,0.10979,0.05284,0.04416,0.05523,0.06101,0.10439,0.01324,0.01967,0.02052,0.04348,0.02975,0.03173,0.01532,0.01956,0.02323,0.03396,0.0187
0.06666,0.08319,0.09803,0.08305,0.054,0.04731,0.02582,0.04068,0.02806,0.05532,0.00997,0.02435,0.0299,0.11497,0.0294,0.03181,0.01223,0.0286,0.02407,0.04442,0.01964
0.04933,0.07067,0.07699,0.07777,0.08547,0.03289,0.02643,0.02655,0.03334,0.07393,0.01145,0.02607,0.0251,0.07577,0.03645,0.04396,0.01471,0.01729,0.04062,0.04117,0.01635
0.06855,0.04275,0.03893,0.06224,0.03898,0.03851,0.02433,0.03973,0.02862,0.04002,0.01181,0.02268,0.02358,0.04628,0.02723,0.03052,0.01902,0.01789,0.0189,0.03726,0.01828
0.09539,0.03201,0.04529,0.07576,0.04364,0.05344,0.03127,0.04015,0.03079,0.04585,0.01126,0.02336,0.02382,0.04503,0.03004,0.03765,0.0112,0.01739,0.01614,0.03099,0.01849
0.09573,0.04841,0.07223,0.07538,0.05257,0.04632,0.03081,0.04205,0.0298,0.05283,0.01996,0.02762,0.02437,0.05703,0.0435,0.05919,0.01451,0.01964,0.02098,0.03715,0.01714
0.08353,0.03049,0.03231,0.11453,0.11631,0.05293,0.05285,0.04931,0.0585,0.10661,0.01205,0.03129,0.02367,0.03144,0.03502,0.0338,0.01152,0.02235,0.01605,0.02219,0.02009
0.06887,0.03765,0.04336,0.09102,0.06153,0.04866,0.02826,0.03395,0.02534,0.06463,0.01431,0.03391,0.02802,0.03246,0.03543,0.03682,0.01476,0.01476,0.02568,0.02746,0.0179
0.05224,0.03719,0.04062,0.10271,0.08091,0.05784,0.03674,0.05097,0.04243,0.07947,0.01202,0.02797,0.02649,0.03031,0.04553,0.04533,0.01422,0.01917,0.01973,0.02294,0.01984
0.05421,0.03724,0.0377,0.10286,0.0813,0.06654,0.14493,0.07145,0.05401,0.0833,0.01506,0.03644,0.04298,0.0359,0.04993,0.05268,0.01722,0.02025,0.019,0.02391,0.0269
0.10367,0.04464,0.04729,0.07801,0.08206,0.04133,0.13457,0.04581,0.04677,0.07017,0.01538,0.02868,0.02981,0.03518,0.05515,0.04821,0.01454,0.02175,0.02034,0.02827,0.02603
0.12767,0.03682,0.04419,0.06914,0.05181,0.03596,0.03557,0.03553,0.03538,0.0555,0.03028,0.03759,0.03695,0.03618,0.03598,0.04239,0.01717,0.01891,0.0127,0.02169,0.02283
0.04599,0.02703,0.03967,0.07715,0.04171,0.05338,0.01893,0.03638,0.02578,0.04948,0.01195,0.02959,0.03338,0.02593,0.04408,0.04751,0.01704,0.02339,0.01141,0.01951,0.02551
0.06753,0.04044,0.0479,0.05929,0.04341,0.03782,0.02074,0.02958,0.02288,0.044,0.01371,0.0362,0.03332,0.03078,0.04162,0.04034,0.02349,0.02122,0.01496,0.01985,0.02548
0.06129,0.03395,0.04194,0.1613,0.10897,0.05259,0.0393,0.0393,0.04011,0.13207,0.01237,0.05288,0.04697,0.03475,0.09696,0.09805,0.01522,0.02171,0.01522,0.02675,0.03043
0.05196,0.03417,0.04141,0.14446,0.14184,0.06216,0.0529,0.05225,0.04195,0.13976,0.01936,0.03931,0.03703,0.03367,0.07788,0.06754,0.02633,0.01851,0.01553,0.02023,0.0312
0.09431,0.03097,0.03856,0.10947,0.07846,0.05036,0.03161,0.04706,0.03471,0.08705,0.02085,0.0368,0.03879,0.02652,0.07019,0.06289,0.02073,0.02074,0.01213,0.02035,0.03696
0.08232,0.03445,0.04039,0.1309,0.10054,0.0461,0.03691,0.05009,0.04437,0.10929,0.00895,0.02798,0.02599,0.03473,0.0411,0.04456,0.01,0.02845,0.01676,0.0251,0.01658
0.11711,0.04252,0.0579,0.05845,0.04405,0.03428,0.01898,0.02605,0.02197,0.04275,0.01724,0.04119,0.03348,0.03437,0.04181,0.04992,0.01785,0.02769,0.01938,0.02308,0.02008
0.09454,0.04666,0.05169,0.12384,0.09727,0.05452,0.03434,0.04658,0.03751,0.10111,0.01699,0.02991,0.02282,0.03947,0.03206,0.03665,0.01899,0.02059,0.0138,0.02637,0.0208
0.08267,0.03988,0.04376,0.10592,0.07874,0.04662,0.02837,0.03628,0.03029,0.08661,0.01158,0.0279,0.02551,0.038,0.04071,0.03768,0.01394,0.03975,0.01437,0.02713,0.01785
0.05776,0.0326,0.03347,0.06823,0.03709,0.04963,0.02079,0.02448,0.01925,0.04143,0.01376,0.02534,0.02523,0.03204,0.0336,0.03434,0.00912,0.0238,0.01557,0.03044,0.01684
0.04854,0.04946,0.05402,0.05509,0.04579,0.03725,0.02655,0.02592,0.0249,0.04526,0.01317,0.03348,0.02633,0.03336,0.03252,0.03782,0.0142,0.02202,0.01808,0.02385,0.01783
0.07624,0.03955,0.04297,0.05228,0.03583,0.03199,0.01883,0.02533,0.01947,0.03758,0.01857,0.03602,0.03998,0.03272,0.03871,0.03524,0.01732,0.01801,0.01554,0.02822,0.02354
0.06113,0.02515,0.02806,0.05851,0.03613,0.04426,0.02354,0.02888,0.02755,0.03534,0.03689,0.03153,0.02855,0.02836,0.03949,0.04603,0.01334,0.02194,0.01168,0.02479,0.01882
0.04796,0.02788,0.03554,0.11144,0.08518,0.03927,0.02582,0.03499,0.03099,0.09823,0.01343,0.02336,0.01939,0.02899,0.02975,0.03258,0.01422,0.02241,0.01296,0.02187,0.01509
0.04524,0.04019,0.04668,0.06436,0.04708,0.04345,0.02758,0.02937,0.0315,0.04809,0.03482,0.02257,0.0253,0.03644,0.03365,0.03686,0.02122,0.02476,0.01626,0.02676,0.01953
0.04943,0.0676,0.06493,0.08287,0.09404,0.04117,0.02949,0.0337,0.02671,0.07689,0.01812,0.02961,0.02418,0.05593,0.03237,0.04088,0.01301,0.01957,0.02813,0.03723,0.0152
0.054,0.03144,0.03852,0.04891,0.03237,0.03616,0.01465,0.02497,0.01933,0.03023,0.01314,0.02685,0.02617,0.03593,0.03046,0.0332,0.02187,0.02235,0.01394,0.02839,0.01628
0.05512,0.05076,0.06204,0.05969,0.04036,0.04238,0.02447,0.03312,0.02705,0.03995,0.02632,0.02413,0.02233,0.04023,0.03035,0.03422,0.00841,0.02851,0.01502,0.02559,0.01503
0.04603,0.0765,0.09341,0.06815,0.0414,0.04341,0.01927,0.02837,0.02124,0.0414,0.01953,0.02797,0.02196,0.0354,0.03025,0.03242,0.01139,0.01904,0.02443,0.02298,0.01468
0.10388,0.03553,0.03727,0.05579,0.03886,0.03732,0.01855,0.03044,0.02271,0.04156,0.01215,0.02219,0.01796,0.02518,0.03475,0.03366,0.01446,0.01995,0.01687,0.01866,0.01607
0.07577,0.03693,0.04319,0.05473,0.04184,0.04264,0.02329,0.0307,0.02131,0.03591,0.01731,0.03796,0.02999,0.04568,0.03762,0.03787,0.01407,0.02115,0.02498,0.03854,0.01858
0.06408,0.03388,0.04092,0.06152,0.03786,0.04561,0.02402,0.0297,0.02106,0.03463,0.01749,0.03264,0.026,0.02923,0.03214,0.03864,0.01342,0.02076,0.01407,0.02189,0.01484
0.06837,0.07497,0.08835,0.06456,0.05179,0.04283,0.02262,0.0393,0.02956,0.04717,0.02349,0.03266,0.02358,0.0418,0.03611,0.03854,0.01457,0.0233,0.01987,0.02951,0.01937
0.09684,0.04557,0.05689,0.06577,0.03716,0.04341,0.01846,0.03075,0.0234,0.03939,0.01302,0.02071,0.01982,0.03086,0.03433,0.03809,0.01087,0.02157,0.0166,0.0204,0.01575
0.06238,0.03758,0.03248,0.04428,0.03684,0.03282,0.01959,0.02595,0.02167,0.03345,0.01102,0.028,0.02405,0.0356,0.03202,0.03329,0.0123,0.02486,0.02368,0.02345,0.01573
0.07086,0.03739,0.04416,0.04567,0.03048,0.03211,0.0229,0.01993,0.01761,0.02677,0.00991,0.02849,0.02177,0.03753,0.02631,0.03247,0.00941,0.02367,0.01612,0.02552,0.01388
0.0873,0.03129,0.03217,0.04178,0.0284,0.03271,0.01636,0.02145,0.01689,0.02558,0.00915,0.02414,0.02316,0.03349,0.02853,0.02911,0.00905,0.02177,0.01983,0.02613,0.01417
0.04639,0.02456,0.03331,0.07736,0.05149,0.05776,0.02938,0.04531,0.03088,0.05573,0.0119,0.02637,0.02077,0.03307,0.03019,0.03635,0.0112,0.02686,0.0122,0.02143,0.01702
0.06358,0.04357,0.04797,0.05589,0.03266,0.04134,0.02335,0.02903,0.0239,0.03538,0.01741,0.03038,0.0259,0.03987,0.0535,0.05793,0.02446,0.01863,0.01791,0.02831,0.02084
0.07837,0.03157,0.04029,0.08558,0.06356,0.06551,0.03697,0.046,0.03522,0.06583,0.01034,0.02375,0.02023,0.02555,0.03237,0.03579,0.01362,0.01529,0.01279,0.01759,0.01535
0.11539,0.02901,0.0345,0.07113,0.04902,0.06128,0.02863,0.04443,0.03078,0.05258,0.0092,0.02692,0.02285,0.03063,0.03186,0.03928,0.01287,0.02648,0.01231,0.02034,0.01508
0.11208,0.0268,0.04257,0.08281,0.0507,0.05896,0.04499,0.03587,0.03465,0.05656,0.0119,0.02453,0.02646,0.02455,0.04336,0.04725,0.01531,0.03868,0.01206,0.02375,0.01983
0.06006,0.03578,0.04911,0.06441,0.0455,0.05459,0.03522,0.03268,0.02537,0.04558,0.01176,0.02452,0.02558,0.03497,0.03462,0.03664,0.01423,0.03794,0.01461,0.03242,0.0176
0.06005,0.04403,0.0584,0.06537,0.03598,0.05552,0.03308,0.03066,0.03173,0.03958,0.01476,0.04147,0.02988,0.04602,0.03622,0.04223,0.01362,0.04924,0.01532,0.03256,0.02059
0.0458,0.03882,0.05059,0.05468,0.04088,0.04718,0.02852,0.0308,0.02856,0.0398,0.01062,0.02416,0.02615,0.04123,0.02678,0.02746,0.01222,0.02995,0.01698,0.03246,0.01735
0.09848,0.03594,0.03195,0.05817,0.0417,0.04794,0.01909,0.03785,0.02664,0.04345,0.01065,0.02582,0.01823,0.04201,0.03908,0.05129,0.01286,0.02065,0.01643,0.02806,0.01754
0.10644,0.03333,0.04376,0.05334,0.03551,0.05859,0.0227,0.03544,0.02378,0.03487,0.0089,0.02283,0.01804,0.04091,0.03095,0.03721,0.01061,0.02685,0.01583,0.02424,0.01499
0.09308,0.03132,0.03987,0.06312,0.04388,0.04054,0.02176,0.03708,0.02682,0.05042,0.01194,0.02436,0.02809,0.03645,0.05245,0.03569,0.0133,0.02603,0.01163,0.02477,0.02647
0.04747,0.02641,0.0311,0.05012,0.02887,0.0382,0.01621,0.02364,0.01813,0.03085,0.02906,0.03902,0.03784,0.02783,0.04271,0.03868,0.01317,0.01873,0.01231,0.02382,0.02348
0.05444,0.02678,0.03726,0.04455,0.02754,0.02569,0.01523,0.01972,0.01489,0.02815,0.0156,0.0231,0.01709,0.03864,0.02936,0.02819,0.01467,0.01859,0.01221,0.03022,0.01747
0.04412,0.02693,0.03734,0.06302,0.04034,0.04648,0.02113,0.0259,0.02167,0.03939,0.00898,0.02172,0.01924,0.03064,0.0252,0.03119,0.01042,0.02149,0.01136,0.02535,0.01584
0.04797,0.03203,0.03674,0.07267,0.0448,0.04383,0.02001,0.02823,0.01886,0.04835,0.01069,0.03366,0.0319,0.02955,0.04043,0.04121,0.0113,0.01856,0.01101,0.02183,0.01963
0.05359,0.03471,0.04568,0.04551,0.03027,0.03042,0.01525,0.02319,0.01919,0.03424,0.05355,0.02497,0.02266,0.0367,0.0295,0.03391,0.05211,0.01974,0.01556,0.02261,0.0161
0.05187,0.03107,0.03353,0.06203,0.0442,0.0467,0.02153,0.03282,0.02615,0.04012,0.04567,0.02157,0.01846,0.02978,0.02405,0.02862,0.03551,0.0165,0.01463,0.03136,0.01508
0.11711,0.03286,0.03757,0.04631,0.02837,0.05748,0.02516,0.05406,0.03493,0.0272,0.02198,0.02166,0.01644,0.0378,0.02337,0.03424,0.02738,0.01588,0.01777,0.03161,0.01573
0.05479,0.04346,0.05354,0.05528,0.03219,0.04629,0.02313,0.03137,0.02732,0.03129,0.01486,0.02906,0.02243,0.04199,0.02277,0.03177,0.01144,0.02148,0.02014,0.03351,0.01528
0.07937,0.03942,0.04717,0.04973,0.04086,0.02988,0.02922,0.02386,0.02684,0.03696,0.03067,0.0317,0.02966,0.04316,0.04936,0.05261,0.02151,0.01666,0.01795,0.02137,0.02128
0.07365,0.046,0.05184,0.05495,0.03055,0.04405,0.03085,0.03362,0.03688,0.03138,0.02225,0.02371,0.02345,0.05782,0.03145,0.04026,0.01991,0.01623,0.02044,0.02456,0.02136
0.04637,0.03918,0.04311,0.04967,0.03665,0.06707,0.02935,0.07607,0.05853,0.03641,0.01071,0.03072,0.03052,0.03469,0.05291,0.0492,0.01005,0.01503,0.01995,0.02797,0.02501
0.05223,0.03355,0.04842,0.05665,0.03523,0.05304,0.0311,0.07443,0.06019,0.03978,0.0076,0.02705,0.02205,0.03017,0.03511,0.0426,0.01415,0.01678,0.0138,0.02434,0.01803
0.05916,0.02997,0.03864,0.06063,0.04413,0.09102,0.04726,0.10762,0.0701,0.0466,0.00919,0.03389,0.02951,0.04335,0.03303,0.03911,0.01197,0.01808,0.01102,0.03067,0.01774
0.04805,0.03425,0.04189,0.07685,0.07347,0.06036,0.10169,0.15769,0.24685,0.06748,0.01025,0.02102,0.0219,0.03072,0.02942,0.03495,0.01211,0.01654,0.01426,0.02105,0.01899
0.04459,0.02942,0.03521,0.06648,0.08052,0.0743,0.15671,0.21169,0.36898,0.06149,0.0088,0.02536,0.02211,0.0257,0.02815,0.03512,0.01056,0.01763,0.01517,0.02256,0.01329
0.02847,0.0223,0.02883,0.05758,0.0335,0.05182,0.02438,0.04496,0.03319,0.03481,0.05294,0.02658,0.02131,0.02948,0.02699,0.03078,0.0145,0.02064,0.01053,0.02291,0.01287
0.03894,0.02161,0.03014,0.04749,0.02792,0.03591,0.01712,0.02437,0.02077,0.02902,0.02426,0.02893,0.02231,0.02805,0.02893,0.03615,0.02402,0.02295,0.0128,0.02216,0.01491
0.06764,0.02596,0.0354,0.05784,0.04129,0.04288,0.03359,0.05367,0.04675,0.0434,0.05212,0.02704,0.02766,0.03359,0.03639,0.03943,0.05122,0.01771,0.01411,0.02121,0.02022
0.06404,0.03178,0.04123,0.06299,0.03091,0.08601,0.03772,0.09352,0.04603,0.03637,0.01576,0.02574,0.02359,0.03717,0.03163,0.03425,0.01731,0.02424,0.01397,0.02431,0.01635
0.05517,0.02796,0.03631,0.05436,0.04355,0.03493,0.02779,0.02977,0.03318,0.04223,0.15263,0.02533,0.02562,0.03074,0.02946,0.03492,0.03369,0.02017,0.01227,0.02402,0.01988
0.04523,0.03174,0.03893,0.04037,0.03037,0.02367,0.01664,0.0237,0.02297,0.03026,0.34711,0.03768,0.03523,0.03395,0.03925,0.04932,0.12092,0.0238,0.01546,0.02852,0.023
0.03993,0.02646,0.03069,0.04625,0.02875,0.04402,0.01678,0.03617,0.02116,0.0284,0.03239,0.02009,0.02018,0.02767,0.03055,0.02905,0.0165,0.01952,0.01113,0.02144,0.01741
0.0339,0.03158,0.0321,0.05763,0.02974,0.04647,0.01713,0.03053,0.01871,0.03589,0.12996,0.0346,0.0313,0.02674,0.0549,0.0645,0.07323,0.01865,0.01716,0.02181,0.02659
0.04297,0.02146,0.02886,0.04464,0.03135,0.03618,0.02904,0.03805,0.03304,0.03478,0.02195,0.02617,0.02691,0.02708,0.04607,0.04812,0.02352,0.01659,0.01299,0.02226,0.02438
0.04076,0.02891,0.03779,0.04302,0.03236,0.07648,0.0522,0.06764,0.06507,0.03242,0.01266,0.02713,0.02488,0.03434,0.02983,0.02494,0.01212,0.01918,0.01391,0.02306,0.01737
0.0841,0.03399,0.04669,0.05372,0.02886,0.05023,0.03811,0.04429,0.04618,0.03061,0.01141,0.03364,0.02622,0.03347,0.0278,0.04017,0.01246,0.01485,0.01102,0.02352,0.01254
0.06132,0.03077,0.03738,0.05292,0.03524,0.03875,0.02779,0.05877,0.06688,0.0366,0.00991,0.02172,0.01798,0.03157,0.02464,0.03245,0.00986,0.02197,0.01241,0.02187,0.01076
0.07596,0.025,0.03724,0.04451,0.03398,0.05239,0.06304,0.06044,0.08723,0.03258,0.0074,0.02206,0.02259,0.02861,0.03387,0.03066,0.0089,0.02026,0.01346,0.02616,0.01475
0.06263,0.02523,0.03444,0.04177,0.02862,0.03246,0.02002,0.03785,0.04004,0.02581,0.00894,0.02721,0.02336,0.02864,0.02177,0.02705,0.00899,0.0651,0.00987,0.01853,0.01462
0.05531,0.03298,0.03807,0.04771,0.03329,0.03396,0.0225,0.02754,0.02775,0.03143,0.05164,0.02369,0.02107,0.02949,0.02256,0.02979,0.01314,0.02563,0.0138,0.02309,0.01412
0.08488,0.03251,0.04889,0.05644,0.03742,0.04497,0.02886,0.03799,0.02774,0.03726,0.01061,0.02447,0.02461,0.03035,0.02346,0.02855,0.00872,0.02393,0.01257,0.02407,0.01392
0.07922,0.03336,0.04194,0.05073,0.02629,0.04527,0.02604,0.03519,0.03274,0.02864,0.0242,0.02472,0.01812,0.02905,0.03017,0.03384,0.01179,0.02327,0.01491,0.02052,0.01382
0.0602,0.03557,0.03991,0.0464,0.02803,0.05298,0.02073,0.03453,0.01966,0.03149,0.08272,0.02472,0.02529,0.03125,0.0259,0.03167,0.04551,0.01667,0.01542,0.02785,0.01562
0.05925,0.03488,0.03335,0.03673,0.03019,0.02771,0.0162,0.02447,0.0196,0.02971,0.04726,0.02762,0.02068,0.02986,0.03138,0.03141,0.02028,0.02013,0.01348,0.02619,0.01583
0.06285,0.04367,0.02677,0.04523,0.0228,0.03189,0.01628,0.02282,0.01865,0.0237,0.05119,0.01964,0.0227,0.0334,0.02906,0.03366,0.0205,0.0186,0.01807,0.02603,0.01368
0.08031,0.02847,0.03283,0.05163,0.02466,0.04081,0.02093,0.02651,0.02644,0.02472,0.01156,0.02105,0.01916,0.02622,0.02815,0.03412,0.01525,0.01814,0.01404,0.01653,0.01322
0.04665,0.02839,0.03361,0.04486,0.02777,0.054,0.01765,0.04678,0.02638,0.02882,0.01571,0.02136,0.01945,0.04573,0.02774,0.02897,0.00928,0.02299,0.01287,0.02698,0.01532
0.07008,0.03139,0.04962,0.03577,0.02439,0.03122,0.02364,0.02148,0.02153,0.02384,0.01318,0.02476,0.0299,0.04468,0.02944,0.03004,0.0171,0.01821,0.01421,0.03528,0.02413
0.0775,0.06256,0.07295,0.04793,0.02952,0.04816,0.01912,0.03081,0.02246,0.03042,0.01087,0.02362,0.02165,0.03302,0.0245,0.0307,0.01149,0.02184,0.01792,0.02788,0.01512
0.07179,0.03021,0.03891,0.05544,0.0373,0.05499,0.03475,0.041,0.04711,0.03965,0.0109,0.02852,0.02276,0.03192,0.02567,0.03,0.01156,0.02131,0.01409,0.02434,0.01633
0.05016,0.07105,0.11734,0.05948,0.02654,0.06147,0.02312,0.04086,0.02204,0.02945,0.0111,0.02354,0.01896,0.04786,0.02363,0.0298,0.01041,0.01906,0.01792,0.03262,0.01853
0.0372,0.03686,0.04774,0.0663,0.04028,0.05526,0.04912,0.04955,0.04181,0.04355,0.02611,0.02002,0.01934,0.03684,0.02517,0.0276,0.02345,0.02055,0.01734,0.03201,0.01619
0.06934,0.06863,0.07734,0.05018,0.0278,0.03863,0.01705,0.0324,0.02056,0.03147,0.02293,0.0247,0.02425,0.02833,0.03033,0.03184,0.02047,0.02055,0.01824,0.01741,0.01478
0.07125,0.02764,0.03764,0.05765,0.03379,0.04859,0.02609,0.03546,0.03215,0.03511,0.00966,0.02112,0.01742,0.02929,0.02675,0.03176,0.00915,0.0253,0.01194,0.02519,0.01397
0.03986,0.05964,0.07654,0.05144,0.03272,0.03584,0.02373,0.03443,0.03191,0.03813,0.0153,0.02236,0.02049,0.04105,0.03268,0.03711,0.0139,0.02568,0.01661,0.02583,0.01552
0.0363,0.04975,0.05698,0.04546,0.02936,0.02993,0.02117,0.03397,0.02946,0.02999,0.00993,0.02201,0.02065,0.03106,0.02841,0.03184,0.01192,0.02333,0.01443,0.02298,0.01903
0.03583,0.07695,0.12108,0.05163,0.0301,0.0544,0.02126,0.04477,0.02355,0.03115,0.0867,0.02146,0.02105,0.04146,0.02674,0.03226,0.02841,0.02202,0.01957,0.02151,0.0164
0.05673,0.09673,0.11636,0.06531,0.03925,0.04167,0.03461,0.03247,0.04017,0.04166,0.01493,0.02186,0.02016,0.04631,0.02728,0.02641,0.00949,0.02671,0.02545,0.02656,0.01463
0.07583,0.06693,0.10443,0.05208,0.03745,0.03216,0.02537,0.03071,0.03235,0.03851,0.01027,0.02046,0.01965,0.04568,0.02419,0.02533,0.0101,0.02503,0.01708,0.02423,0.01372
0.04853,0.04418,0.05697,0.04496,0.03044,0.03796,0.01588,0.02925,0.01826,0.02984,0.0089,0.0263,0.02035,0.03528,0.02397,0.02673,0.0108,0.01923,0.01589,0.02482,0.00962
0.06204,0.03892,0.04613,0.04167,0.0264,0.04209,0.01618,0.0315,0.02309,0.02695,0.01074,0.03868,0.02355,0.04468,0.03552,0.04468,0.01385,0.03325,0.01458,0.02762,0.01445
0.05691,0.03019,0.04588,0.05356,0.04488,0.03836,0.02983,0.03401,0.03642,0.04283,0.0132,0.02649,0.02222,0.05537,0.03028,0.04122,0.01282,0.03107,0.01477,0.04454,0.01497
0.06058,0.02545,0.03663,0.04047,0.02932,0.04914,0.0453,0.04122,0.04243,0.02961,0.01247,0.02378,0.02246,0.02858,0.02925,0.03436,0.01206,0.05701,0.01597,0.02572,0.01872
0.058,0.06123,0.09118,0.05,0.03145,0.0391,0.02318,0.03756,0.02696,0.03635,0.01546,0.02727,0.02276,0.04939,0.03285,0.04852,0.01736,0.02254,0.01648,0.03098,0.01614
0.03854,0.04081,0.05076,0.0508,0.03626,0.06025,0.04102,0.05194,0.03928,0.03193,0.01328,0.03234,0.03676,0.032,0.03621,0.04469,0.01584,0.02631,0.01793,0.0241,0.02078
0.08094,0.04885,0.04975,0.06535,0.05758,0.0454,0.04606,0.04171,0.04935,0.05421,0.01142,0.01901,0.01763,0.04121,0.02938,0.03567,0.01173,0.02608,0.02004,0.02462,0.0133
0.1048,0.03894,0.05265,0.04893,0.03044,0.04123,0.02578,0.04506,0.04815,0.03452,0.01111,0.0183,0.01829,0.04216,0.01985,0.02448,0.00971,0.02448,0.01555,0.02577,0.01167
0.11392,0.05589,0.07186,0.04789,0.03245,0.04356,0.02283,0.03788,0.03044,0.03327,0.01261,0.03024,0.02519,0.03616,0.03805,0.04722,0.01045,0.02722,0.01703,0.02138,0.01831
0.13527,0.02868,0.03596,0.06099,0.04601,0.07337,0.03251,0.09729,0.06865,0.04612,0.01246,0.02485,0.02078,0.03273,0.03314,0.03609,0.0115,0.02239,0.01299,0.02436,0.01544
0.04863,0.04519,0.05448,0.036,0.02903,0.03402,0.05636,0.03044,0.05389,0.03033,0.01306,0.02367,0.02215,0.03251,0.03817,0.05138,0.01176,0.02246,0.01751,0.02437,0.02028
0.04654,0.04223,0.04547,0.05458,0.0348,0.05227,0.03513,0.0501,0.03432,0.03645,0.01192,0.02682,0.02876,0.04121,0.05004,0.05701,0.01376,0.02126,0.01914,0.02932,0.0221
0.05623,0.05106,0.05303,0.05207,0.02967,0.04131,0.02488,0.02485,0.02057,0.02963,0.01096,0.02093,0.02044,0.04686,0.0407,0.06189,0.01797,0.01586,0.02575,0.03685,0.01556
0.05003,0.03871,0.04252,0.04261,0.03885,0.04041,0.02982,0.04192,0.02745,0.03625,0.0101,0.0207,0.01535,0.03778,0.0353,0.03806,0.01729,0.02103,0.02468,0.03078,0.01753
0.0384,0.03199,0.04561,0.03851,0.02219,0.0427,0.0195,0.03071,0.02119,0.02523,0.01035,0.02365,0.02513,0.04244,0.03328,0.03909,0.01009,0.01816,0.01727,0.033,0.01869
0.04099,0.02711,0.03898,0.05799,0.04231,0.04291,0.03535,0.0339,0.03496,0.04183,0.01075,0.04512,0.03583,0.04111,0.04542,0.0511,0.0159,0.01764,0.01539,0.02797,0.02019
0.0595,0.02534,0.03234,0.05744,0.03641,0.04711,0.02423,0.03227,0.02507,0.03996,0.01135,0.02463,0.01933,0.03366,0.03023,0.03556,0.01463,0.01884,0.01338,0.02719,0.0155
0.04325,0.02393,0.02726,0.05649,0.03648,0.04064,0.03267,0.02611,0.02868,0.0385,0.01156,0.02497,0.02725,0.02857,0.04235,0.05303,0.00742,0.01834,0.01267,0.02084,0.01863
0.07042,0.03092,0.04249,0.04848,0.03083,0.05415,0.02416,0.05233,0.02659,0.03239,0.01166,0.02642,0.02309,0.03059,0.04486,0.05222,0.01194,0.02264,0.01381,0.01985,0.02164
0.05345,0.0277,0.03621,0.05134,0.0308,0.03947,0.01492,0.03216,0.02198,0.03206,0.02171,0.03448,0.03877,0.0337,0.05077,0.04986,0.01606,0.01721,0.01492,0.0223,0.02591
0.04577,0.02614,0.03268,0.05936,0.03365,0.04795,0.02587,0.03831,0.03036,0.03896,0.01056,0.03207,0.03104,0.03057,0.0289,0.03815,0.01663,0.01689,0.01367,0.02231,0.01768
0.05963,0.03568,0.04276,0.0462,0.02992,0.04414,0.04458,0.03334,0.0368,0.03104,0.0112,0.03056,0.02636,0.03475,0.03614,0.04289,0.01548,0.02248,0.02022,0.02496,0.01669
0.0481,0.02788,0.03451,0.03888,0.02255,0.04187,0.02087,0.04202,0.01973,0.02366,0.00786,0.0262,0.02483,0.02717,0.02628,0.03026,0.01188,0.01841,0.01355,0.02157,0.01623
0.09599,0.03159,0.04912,0.04524,0.03111,0.03271,0.0202,0.02296,0.01945,0.03257,0.01629,0.02823,0.02877,0.03739,0.03263,0.03835,0.01631,0.01839,0.01757,0.03196,0.01678
0.05978,0.03366,0.04,0.05388,0.02301,0.05871,0.0195,0.04626,0.0219,0.02916,0.01768,0.03659,0.03154,0.03624,0.03316,0.03804,0.02298,0.02219,0.01804,0.02736,0.01443
0.05485,0.03562,0.03865,0.05052,0.03692,0.04949,0.03665,0.05143,0.04161,0.0365,0.01514,0.03308,0.03101,0.02998,0.03427,0.04584,0.01686,0.01846,0.02284,0.02574,0.01562
0.05557,0.05868,0.06294,0.0497,0.02908,0.0458,0.01943,0.03311,0.02331,0.03668,0.01773,0.04172,0.03956,0.04865,0.05432,0.04988,0.01698,0.01954,0.02541,0.04513,0.02943
0.10708,0.02829,0.03751,0.0396,0.02425,0.03308,0.0168,0.02457,0.02267,0.02583,0.10849,0.03611,0.02905,0.03894,0.04027,0.03925,0.03953,0.0214,0.01333,0.02713,0.0196
0.04474,0.03294,0.03699,0.04205,0.02127,0.03332,0.01558,0.02192,0.01826,0.02368,0.08654,0.02758,0.021,0.04054,0.03015,0.0338,0.0271,0.03571,0.01967,0.03279,0.0155
0.03842,0.04241,0.04648,0.03786,0.02771,0.02887,0.02013,0.02411,0.02254,0.02872,0.02148,0.03124,0.0272,0.0338,0.03045,0.03017,0.01789,0.02573,0.01735,0.02276,0.01973
0.04404,0.03876,0.04478,0.04644,0.03174,0.02889,0.0169,0.02532,0.02046,0.03039,0.05521,0.02801,0.02269,0.03947,0.0239,0.0309,0.01784,0.02078,0.01394,0.02436,0.01405
0.03897,0.02899,0.04237,0.04338,0.03321,0.04364,0.02503,0.03008,0.025,0.03225,0.01608,0.02669,0.02471,0.02565,0.02827,0.0316,0.01304,0.0233,0.01167,0.02137,0.01552
0.03939,0.02889,0.03581,0.06697,0.04992,0.04682,0.02708,0.06815,0.07073,0.05176,0.00868,0.02588,0.02512,0.03118,0.03069,0.03181,0.01312,0.02012,0.01346,0.02161,0.01673
0.0437,0.04064,0.04573,0.04823,0.03135,0.05023,0.02754,0.07324,0.06895,0.03411,0.01179,0.02353,0.01903,0.03801,0.0273,0.03381,0.01037,0.02925,0.01892,0.02656,0.01483
0.06767,0.02225,0.02563,0.04424,0.03376,0.02875,0.01539,0.02817,0.02139,0.03672,0.02276,0.02552,0.0241,0.02984,0.03224,0.03262,0.02505,0.01735,0.01409,0.02613,0.01872
0.05004,0.02976,0.03458,0.04432,0.02337,0.03209,0.01453,0.02349,0.01686,0.02573,0.13376,0.02283,0.02122,0.02955,0.02761,0.02891,0.11833,0.02344,0.01507,0.02453,0.01249
0.0835,0.03105,0.03397,0.03707,0.02277,0.02321,0.01417,0.01672,0.01718,0.02398,0.15427,0.03241,0.03086,0.0248,0.03554,0.04344,0.15559,0.02307,0.01358,0.01772,0.02251
0.05602,0.02831,0.02977,0.04079,0.02441,0.02877,0.01882,0.01993,0.01864,0.02587,0.79692,0.03661,0.03485,0.02332,0.03348,0.03822,0.30673,0.02042,0.01512,0.01844,0.02281
0.08188,0.02149,0.02815,0.0481,0.03897,0.02559,0.02084,0.02125,0.02394,0.03738,0.13043,0.02898,0.02667,0.02377,0.03132,0.03009,0.04668,0.02135,0.00958,0.01999,0.02036
0.09446,0.06251,0.06479,0.05279,0.03889,0.03158,0.0209,0.02441,0.02067,0.03939,0.0666,0.04409,0.03428,0.03672,0.03991,0.0526,0.03458,0.02326,0.0176,0.0222,0.02075
0.06247,0.04706,0.06207,0.04411,0.03414,0.03181,0.0211,0.01967,0.01885,0.0343,0.09078,0.02402,0.02042,0.04193,0.02525,0.03201,0.02002,0.01702,0.01954,0.02476,0.01375
0.06306,0.03114,0.03406,0.06012,0.04377,0.02721,0.02071,0.0291,0.02564,0.04772,0.03195,0.02867,0.025,0.02441,0.03188,0.03461,0.017,0.01969,0.01405,0.01752,0.01907
0.05627,0.04166,0.04417,0.04405,0.02647,0.03004,0.0139,0.018,0.01388,0.02739,0.01736,0.03369,0.03638,0.02337,0.05531,0.05042,0.01219,0.0183,0.01657,0.01839,0.0218
0.05598,0.04166,0.04667,0.06307,0.05583,0.0242,0.02052,0.02284,0.02117,0.06264,0.01469,0.02807,0.02778,0.03907,0.03488,0.0383,0.01711,0.01874,0.01528,0.02499,0.01736
0.09588,0.03006,0.04373,0.05672,0.04278,0.03157,0.01875,0.02651,0.02101,0.04346,0.01047,0.02024,0.02314,0.03905,0.02937,0.02504,0.00939,0.01509,0.01798,0.02937,0.02139
0.09538,0.0416,0.05352,0.06423,0.04136,0.03786,0.02124,0.03413,0.02601,0.04822,0.00995,0.02705,0.02447,0.0497,0.03245,0.03873,0.01225,0.02543,0.01999,0.0325,0.01801
0.07408,0.03471,0.04122,0.04362,0.02516,0.03544,0.01416,0.03407,0.02048,0.02959,0.1083,0.02609,0.02897,0.03105,0.03651,0.03324,0.01696,0.02863,0.0183,0.02376,0.02079
0.04222,0.03162,0.04296,0.03787,0.02833,0.03083,0.04132,0.04107,0.0783,0.0268,0.01104,0.02463,0.02174,0.03541,0.02638,0.02582,0.01033,0.02559,0.01614,0.02542,0.01415
0.04596,0.03166,0.03711,0.03709,0.02314,0.02825,0.01596,0.02811,0.02304,0.02508,0.01516,0.02577,0.03471,0.03088,0.03288,0.03003,0.02155,0.02313,0.01798,0.02228,0.02387
0.04763,0.02671,0.03274,0.04789,0.02652,0.04139,0.01653,0.03139,0.02152,0.02973,0.01503,0.02678,0.02007,0.03195,0.03216,0.0345,0.02011,0.01812,0.01354,0.02781,0.01607
0.03919,0.03158,0.04136,0.04379,0.02878,0.03411,0.02148,0.02301,0.01861,0.0273,0.00893,0.02263,0.01975,0.03161,0.02246,0.02242,0.00855,0.01959,0.02307,0.02369,0.01458
0.02935,0.02766,0.03256,0.04542,0.03589,0.02782,0.02431,0.03077,0.03184,0.03384,0.00984,0.02161,0.0194,0.03726,0.02006,0.02111,0.01224,0.0159,0.01937,0.02522,0.01467
0.0324,0.05699,0.04106,0.05363,0.03508,0.03369,0.02347,0.0288,0.03211,0.03577,0.00925,0.02046,0.0239,0.02999,0.0308,0.03346,0.01031,0.02158,0.01875,0.02068,0.01537
0.02881,0.04288,0.03641,0.04922,0.02933,0.03882,0.01967,0.02684,0.02206,0.02893,0.0121,0.0334,0.02697,0.0271,0.0358,0.04452,0.02365,0.01931,0.01814,0.01895,0.01743
0.06624,0.03296,0.03948,0.03955,0.028,0.02629,0.0119,0.02363,0.01691,0.02554,0.01731,0.02542,0.02968,0.03959,0.02838,0.03177,0.01312,0.0171,0.01684,0.03334,0.01579
0.10398,0.04116,0.03695,0.06325,0.04709,0.02873,0.01971,0.02412,0.02048,0.05138,0.01064,0.02193,0.0167,0.0213,0.02609,0.02971,0.01092,0.02089,0.01563,0.02117,0.01148
0.05712,0.03651,0.04488,0.04912,0.03114,0.04034,0.01555,0.02487,0.01775,0.03316,0.02075,0.02596,0.02608,0.03406,0.03573,0.04385,0.0134,0.0205,0.01318,0.02231,0.01721
0.04329,0.02853,0.03622,0.0386,0.02666,0.03,0.01593,0.02482,0.02304,0.02637,0.07445,0.02838,0.02248,0.02252,0.03218,0.04142,0.02142,0.0265,0.01497,0.02231,0.01479
0.03882,0.02334,0.02948,0.03879,0.02373,0.0297,0.01983,0.01827,0.02077,0.02238,0.03382,0.02894,0.02871,0.02941,0.03731,0.04251,0.01726,0.03053,0.01157,0.02511,0.01952
0.03739,0.03572,0.04915,0.04619,0.02692,0.04035,0.01855,0.02014,0.02115,0.02601,0.28857,0.03469,0.02814,0.0391,0.03539,0.04566,0.08514,0.02095,0.01651,0.03243,0.0195
0.03089,0.02483,0.03145,0.04103,0.03303,0.03405,0.01794,0.0236,0.02116,0.03338,0.31749,0.02667,0.02859,0.02855,0.03078,0.03538,0.17403,0.0237,0.01268,0.02116,0.0195
0.03775,0.02592,0.02971,0.04356,0.03152,0.02582,0.01834,0.02087,0.02466,0.02972,0.17049,0.02498,0.02604,0.03044,0.0332,0.03603,0.10962,0.02587,0.01201,0.02811,0.0186
0.02644,0.02903,0.0292,0.04057,0.03096,0.02728,0.01709,0.02365,0.02272,0.02965,0.295,0.02802,0.02568,0.0259,0.02787,0.03368,0.11495,0.01968,0.02091,0.02009,0.01864
0.02798,0.0332,0.0504,0.04945,0.0346,0.02914,0.01729,0.02197,0.01776,0.03515,0.09233,0.02899,0.02683,0.02878,0.03654,0.03662,0.03762,0.01835,0.015,0.0214,0.01944
0.03794,0.02207,0.03025,0.04505,0.03752,0.03695,0.03454,0.05811,0.07644,0.03558,0.38006,0.03079,0.02703,0.03104,0.04128,0.03938,0.15089,0.01449,0.00953,0.02701,0.02225
0.03339,0.02681,0.03485,0.05063,0.05539,0.05943,0.08282,0.10584,0.15173,0.04943,0.14805,0.0259,0.02214,0.02906,0.03146,0.0307,0.09615,0.01517,0.01175,0.02279,0.01656
0.06212,0.03248,0.04162,0.0603,0.03883,0.03805,0.02186,0.03308,0.02661,0.04185,0.02489,0.02433,0.02201,0.02835,0.02906,0.02715,0.04553,0.02068,0.01241,0.01916,0.01858
0.05701,0.02161,0.02331,0.0731,0.04459,0.05974,0.03001,0.05142,0.03488,0.05046,0.01097,0.03287,0.02801,0.02424,0.04415,0.04249,0.01693,0.01855,0.01106,0.02195,0.01789
0.08064,0.03536,0.03557,0.06112,0.03662,0.0623,0.037,0.03651,0.03282,0.0395,0.0096,0.01726,0.01989,0.03322,0.02587,0.02761,0.01163,0.01944,0.01901,0.03346,0.01334
0.06075,0.03648,0.04238,0.04581,0.03278,0.03886,0.02309,0.02713,0.02836,0.02935,0.0107,0.02409,0.0247,0.02972,0.02998,0.03299,0.01076,0.02295,0.01315,0.02127,0.01557
0.03895,0.03713,0.04656,0.05288,0.02706,0.03869,0.01497,0.02769,0.01974,0.03,0.00965,0.02617,0.02577,0.0301,0.03045,0.02846,0.0141,0.02066,0.01527,0.02331,0.01683
0.04054,0.02494,0.03318,0.04271,0.03124,0.03534,0.02032,0.02909,0.0266,0.03115,0.009,0.02148,0.01983,0.0299,0.0235,0.03024,0.01032,0.01805,0.01273,0.02542,0.01278
0.0307,0.03497,0.04587,0.04146,0.03036,0.03023,0.016,0.0241,0.01908,0.03186,0.01259,0.02951,0.02315,0.0284,0.02917,0.037,0.00945,0.01664,0.01246,0.02163,0.01631
0.03775,0.03182,0.03238,0.03856,0.0299,0.028,0.01693,0.02457,0.02265,0.02936,0.00761,0.0254,0.02222,0.02969,0.02805,0.02939,0.01075,0.01558,0.01361,0.02246,0.01483
0.04989,0.02321,0.02701,0.03744,0.0239,0.02509,0.01683,0.01917,0.02171,0.0252,0.03449,0.02598,0.02231,0.02155,0.02299,0.02795,0.01375,0.01733,0.01277,0.01566,0.01352
0.05675,0.03577,0.06179,0.06844,0.04447,0.03833,0.02683,0.03135,0.02911,0.04448,0.01612,0.02013,0.02241,0.03786,0.02661,0.02964,0.01337,0.02039,0.01416,0.02678,0.02017
0.04208,0.03393,0.04771,0.07089,0.05647,0.03799,0.02023,0.03321,0.02695,0.05887,0.01228,0.02325,0.02411,0.04219,0.03048,0.0309,0.01432,0.01795,0.01517,0.02733,0.0164
0.05191,0.03317,0.04414,0.0608,0.05448,0.03724,0.03525,0.03367,0.04138,0.05139,0.00861,0.02312,0.01992,0.03366,0.02445,0.03315,0.01077,0.02139,0.01188,0.02204,0.01303
0.04011,0.03177,0.03537,0.0438,0.03107,0.03789,0.03003,0.02172,0.02186,0.03036,0.00799,0.02872,0.0231,0.02492,0.02692,0.02652,0.00985,0.01756,0.01476,0.01991,0.01497
0.0432,0.03906,0.05658,0.06817,0.04131,0.04459,0.02315,0.03676,0.03116,0.04355,0.01134,0.01999,0.02027,0.03332,0.02553,0.03278,0.01335,0.01819,0.01212,0.02425,0.01332
0.05117,0.03305,0.04168,0.07844,0.05576,0.04052,0.01887,0.03298,0.02066,0.05947,0.00961,0.0217,0.02125,0.03502,0.02313,0.02611,0.01052,0.01929,0.01366,0.02397,0.01627
0.03751,0.03477,0.03786,0.09129,0.07433,0.03345,0.01904,0.02971,0.0233,0.0826,0.0093,0.02656,0.02366,0.03618,0.02757,0.02353,0.0091,0.02115,0.01752,0.02902,0.01868
0.05539,0.02702,0.03444,0.06706,0.04362,0.02502,0.0161,0.029,0.02222,0.05086,0.0128,0.03133,0.02832,0.03608,0.03074,0.03607,0.01105,0.02016,0.01449,0.0256,0.01574
0.08458,0.02999,0.04232,0.05539,0.04277,0.02513,0.01843,0.02834,0.02326,0.0446,0.01311,0.02926,0.02569,0.04823,0.0333,0.03858,0.01431,0.0287,0.01592,0.03808,0.01583
0.08632,0.0355,0.04631,0.04723,0.03761,0.03033,0.02144,0.02139,0.01922,0.03632,0.00877,0.0217,0.01688,0.04189,0.02202,0.02764,0.00997,0.02519,0.01673,0.03059,0.01208
0.09728,0.03138,0.03293,0.07869,0.05014,0.03735,0.02171,0.03086,0.02595,0.05708,0.01264,0.02316,0.02233,0.03776,0.02731,0.03249,0.0118,0.01958,0.02093,0.0268,0.01551
0.18469,0.02986,0.03851,0.05899,0.04235,0.03094,0.01916,0.0334,0.02538,0.04024,0.01231,0.02882,0.02781,0.03539,0.03064,0.03676,0.01206,0.01755,0.0174,0.02368,0.01753
0.09677,0.03665,0.04249,0.06814,0.06106,0.03285,0.02485,0.03682,0.03298,0.0625,0.01176,0.02414,0.02104,0.04108,0.0198,0.02258,0.00886,0.02614,0.01784,0.03112,0.01569
0.15648,0.02968,0.04491,0.04134,0.02736,0.02686,0.01457,0.02048,0.01716,0.02771,0.14221,0.02682,0.02676,0.03501,0.0336,0.03661,0.12379,0.02393,0.01594,0.02976,0.02043
0.07038,0.03455,0.04252,0.06011,0.03384,0.04293,0.01927,0.02845,0.02274,0.03994,0.11646,0.02878,0.03073,0.03298,0.03827,0.05033,0.05662,0.02307,0.01343,0.0248,0.01685
0.0326,0.03512,0.04851,0.059,0.03617,0.03416,0.0247,0.03294,0.03116,0.0361,0.05848,0.02864,0.0287,0.03766,0.03594,0.04175,0.02498,0.01897,0.01642,0.02777,0.01883
0.06391,0.02458,0.02689,0.0498,0.03678,0.02962,0.02302,0.02641,0.02536,0.03903,0.02934,0.01954,0.02109,0.03069,0.02433,0.03076,0.03642,0.02189,0.01238,0.02929,0.01539
0.04212,0.02902,0.02488,0.03675,0.02503,0.0293,0.01122,0.02013,0.01438,0.02735,0.0126,0.02495,0.02231,0.02675,0.03017,0.03645,0.00918,0.02056,0.01541,0.0201,0.01173
0.05536,0.02645,0.03577,0.07493,0.05203,0.037,0.01986,0.0267,0.02377,0.05864,0.01731,0.02747,0.02216,0.03223,0.03085,0.03498,0.01845,0.01215,0.01153,0.02355,0.01341
0.04228,0.02868,0.03598,0.03937,0.03441,0.02438,0.0159,0.02293,0.01927,0.03124,0.10024,0.03534,0.02651,0.02226,0.0309,0.04197,0.03144,0.02086,0.01466,0.02072,0.01672
0.03956,0.02699,0.03023,0.053,0.06497,0.02287,0.02568,0.02116,0.0234,0.05511,0.0343,0.02563,0.01958,0.02336,0.02345,0.03161,0.01426,0.01845,0.01742,0.0182,0.01423
0.04365,0.03018,0.0358,0.16091,0.21102,0.04286,0.07178,0.04946,0.05822,0.18173,0.06377,0.03478,0.03225,0.02537,0.03062,0.03831,0.03767,0.01719,0.01489,0.02279,0.01997
0.04262,0.03145,0.04203,0.10995,0.09461,0.04711,0.03136,0.0508,0.04349,0.10306,0.22782,0.04412,0.03761,0.02918,0.045,0.05684,0.11849,0.01894,0.01552,0.02131,0.02675
0.03856,0.02426,0.03111,0.0767,0.05637,0.03624,0.02411,0.0336,0.02752,0.05717,0.09044,0.03257,0.02984,0.0278,0.03418,0.03898,0.04414,0.02264,0.00953,0.01631,0.02278
0.03839,0.02377,0.02641,0.04608,0.02873,0.02943,0.01397,0.02002,0.01724,0.03269,0.0733,0.02486,0.024,0.03119,0.03652,0.03314,0.02702,0.02051,0.0118,0.02258,0.01896
0.04864,0.03022,0.03003,0.06588,0.06214,0.03275,0.02472,0.033,0.02884,0.06446,0.07722,0.02652,0.02652,0.03026,0.03343,0.03802,0.07449,0.02265,0.01611,0.02161,0.01914
0.04264,0.03305,0.03845,0.11763,0.11601,0.04031,0.05677,0.05917,0.05164,0.11537,0.07744,0.03278,0.02758,0.03525,0.02992,0.04134,0.02182,0.02276,0.01983,0.02536,0.0194
0.04776,0.03732,0.04524,0.06509,0.03733,0.0357,0.01733,0.02365,0.02096,0.04038,0.03944,0.02311,0.02179,0.05003,0.02845,0.03501,0.01296,0.02716,0.01635,0.03148,0.0145
0.08554,0.03524,0.04893,0.06358,0.04664,0.03248,0.01899,0.02377,0.0213,0.04915,0.0111,0.02767,0.02506,0.0552,0.03119,0.03658,0.01271,0.02364,0.01938,0.03526,0.01707
0.04828,0.03233,0.04109,0.05747,0.04518,0.03131,0.01844,0.02767,0.02416,0.051,0.01041,0.02249,0.02108,0.03378,0.02311,0.02433,0.00946,0.02127,0.0146,0.02333,0.01504
0.05584,0.03786,0.04516,0.05539,0.03883,0.02866,0.01854,0.02439,0.02582,0.04325,0.00985,0.02691,0.02301,0.05137,0.02537,0.02652,0.014,0.02186,0.01617,0.03427,0.01698
0.04198,0.04334,0.05248,0.06058,0.05164,0.04614,0.03734,0.05717,0.06928,0.05332,0.0094,0.02593,0.02727,0.04041,0.02588,0.02503,0.01557,0.02626,0.01638,0.02597,0.01433
0.03886,0.03962,0.04381,0.05965,0.03811,0.05163,0.02409,0.05454,0.03545,0.04072,0.00955,0.02703,0.02809,0.0275,0.02418,0.02543,0.01183,0.02403,0.01643,0.01978,0.01637
0.03559,0.0283,0.02497,0.0418,0.02599,0.04341,0.01757,0.03022,0.02128,0.02625,0.00965,0.01734,0.01604,0.02854,0.02387,0.02498,0.01516,0.02022,0.01658,0.02485,0.01523
0.03793,0.03294,0.03557,0.04516,0.03253,0.04037,0.01664,0.0492,0.03586,0.03193,0.0094,0.02484,0.02323,0.03089,0.02372,0.02627,0.01198,0.02355,0.01568,0.02287,0.01603
0.04269,0.03081,0.04308,0.05863,0.03351,0.0395,0.02913,0.0271,0.03133,0.03881,0.0134,0.01922,0.01877,0.0251,0.02402,0.03058,0.01281,0.03267,0.01323,0.01796,0.01448
0.05641,0.0582,0.06642,0.03599,0.02757,0.02935,0.0291,0.02659,0.03816,0.02359,0.02522,0.0224,0.02379,0.03923,0.02467,0.03335,0.00941,0.02776,0.01962,0.02994,0.01622
0.14733,0.06019,0.06398,0.06343,0.03524,0.03625,0.02255,0.02483,0.02119,0.03927,0.09223,0.02191,0.02202,0.0303,0.02377,0.02697,0.01755,0.03309,0.01705,0.0195,0.01393
0.14324,0.07425,0.10447,0.04832,0.02813,0.03598,0.01761,0.03062,0.02191,0.0326,0.09221,0.02791,0.02796,0.0346,0.02997,0.03158,0.03749,0.02407,0.01764,0.01775,0.01712
0.11447,0.06392,0.09657,0.04459,0.04234,0.03803,0.02284,0.0347,0.02781,0.03611,0.48621,0.02789,0.02714,0.03337,0.03095,0.02896,0.19254,0.03707,0.01794,0.02634,0.01984
0.06227,0.04727,0.06483,0.06912,0.05951,0.03384,0.02446,0.04047,0.04299,0.06178,0.11298,0.03909,0.03619,0.03412,0.04425,0.04729,0.06466,0.02444,0.01329,0.02343,0.02115
0.05171,0.03199,0.03757,0.04225,0.0285,0.02582,0.01777,0.0186,0.01901,0.02921,0.06306,0.032,0.02813,0.03067,0.04447,0.04684,0.03387,0.02532,0.01562,0.02882,0.01981
0.04421,0.03266,0.04799,0.05006,0.03534,0.03268,0.01924,0.02439,0.02,0.03985,0.02312,0.02661,0.02289,0.032,0.03452,0.04323,0.01372,0.01908,0.01578,0.01994,0.01495
0.06477,0.04486,0.06094,0.0503,0.03163,0.04551,0.01935,0.03342,0.0219,0.0336,0.03992,0.03518,0.02811,0.03541,0.03792,0.04127,0.01872,0.0235,0.01593,0.0246,0.01482
0.10157,0.02202,0.03075,0.03965,0.03196,0.02308,0.0179,0.01737,0.02076,0.02987,0.03235,0.03253,0.02774,0.02968,0.03644,0.03941,0.02094,0.01962,0.01378,0.02132,0.01712
0.07581,0.02711,0.03185,0.0351,0.02201,0.02537,0.01239,0.01819,0.01595,0.02245,0.01296,0.02156,0.01914,0.02225,0.04168,0.0403,0.01155,0.0149,0.01292,0.01966,0.01914
0.03373,0.02509,0.02496,0.04958,0.05136,0.02423,0.01921,0.02159,0.02158,0.04586,0.00826,0.02606,0.01985,0.02691,0.02156,0.0257,0.00961,0.02127,0.01191,0.01825,0.0138
0.06917,0.02288,0.02922,0.0516,0.03396,0.03492,0.0189,0.02406,0.02221,0.03693,0.00864,0.02363,0.02095,0.02773,0.02981,0.03253,0.013,0.02321,0.01176,0.01954,0.01832
0.0714,0.03121,0.03545,0.03771,0.02272,0.02722,0.01449,0.01657,0.01586,0.02368,0.00909,0.02007,0.0193,0.02634,0.02685,0.02261,0.00916,0.03342,0.01626,0.0211,0.01679
0.04751,0.03496,0.03443,0.03879,0.02291,0.02829,0.01152,0.01653,0.01383,0.02522,0.0137,0.027,0.0268,0.02633,0.04268,0.04096,0.0125,0.02822,0.01568,0.02221,0.02108
0.02959,0.03352,0.03567,0.04384,0.02581,0.03489,0.01911,0.03213,0.02302,0.02818,0.01027,0.03264,0.02938,0.03208,0.03401,0.04125,0.01126,0.03629,0.01343,0.02716,0.01576
0.03135,0.03122,0.03668,0.04397,0.02848,0.03752,0.02625,0.03371,0.02997,0.02874,0.0135,0.02231,0.0204,0.02686,0.03462,0.04351,0.01566,0.03003,0.01377,0.02209,0.01503
0.07121,0.02086,0.02743,0.05567,0.03604,0.03779,0.02208,0.02282,0.0222,0.03914,0.00842,0.01981,0.01975,0.02643,0.03162,0.03507,0.01188,0.0241,0.01062,0.02466,0.01748
0.04331,0.0277,0.03629,0.06883,0.04863,0.04209,0.02286,0.03441,0.02381,0.0502,0.01099,0.02285,0.0185,0.03383,0.03201,0.04298,0.01166,0.03037,0.01475,0.02492,0.01414
0.04407,0.02934,0.04658,0.05959,0.04779,0.04171,0.03321,0.03672,0.03932,0.04785,0.00815,0.02311,0.01834,0.03262,0.02511,0.02976,0.01186,0.02175,0.01757,0.02577,0.01232
0.03812,0.02545,0.03193,0.0465,0.03014,0.02521,0.01732,0.02778,0.02635,0.03299,0.01094,0.02247,0.02534,0.02676,0.03583,0.03775,0.01551,0.02511,0.01384,0.02118,0.01636
0.03579,0.02918,0.04136,0.04838,0.0251,0.03108,0.01534,0.02049,0.01818,0.02971,0.01325,0.02521,0.02423,0.02953,0.04068,0.04874,0.01143,0.01998,0.01097,0.02211,0.01628
0.05358,0.0217,0.03136,0.04434,0.02873,0.02741,0.01498,0.0234,0.01939,0.034,0.00847,0.02193,0.02422,0.0311,0.02005,0.02634,0.01046,0.0189,0.012,0.02316,0.01483
0.07182,0.02901,0.03686,0.05867,0.03984,0.03389,0.02192,0.02442,0.0234,0.04177,0.00979,0.01791,0.01687,0.03261,0.0233,0.02258,0.01305,0.02589,0.01151,0.02507,0.01247
0.05426,0.02935,0.02933,0.07409,0.04815,0.03037,0.01706,0.02472,0.01892,0.05586,0.0097,0.02394,0.02148,0.03496,0.02627,0.03101,0.01002,0.01918,0.01716,0.02738,0.01406
0.05732,0.03445,0.03665,0.05467,0.04019,0.0324,0.01604,0.02612,0.02149,0.04413,0.00945,0.02087,0.01991,0.03842,0.02078,0.02551,0.01225,0.01725,0.01539,0.02649,0.01337
0.04839,0.02177,0.02268,0.03832,0.02845,0.02396,0.02088,0.02168,0.02361,0.02902,0.0093,0.0189,0.0175,0.02344,0.0271,0.02748,0.01046,0.01724,0.01213,0.01543,0.01387
0.05764,0.03056,0.03896,0.03944,0.02999,0.02817,0.01475,0.02211,0.01732,0.0328,0.0112,0.02134,0.02374,0.02852,0.02959,0.02664,0.01195,0.01839,0.01306,0.02483,0.01957
0.05554,0.02755,0.03574,0.05085,0.03025,0.03619,0.01682,0.02861,0.02164,0.03341,0.09511,0.02836,0.02887,0.03139,0.03175,0.03343,0.02366,0.01974,0.01182,0.02602,0.01635
0.11248,0.04609,0.08623,0.0538,0.0458,0.02378,0.02163,0.02574,0.02376,0.05007,0.01128,0.02549,0.02689,0.03706,0.02566,0.02867,0.01412,0.01825,0.01726,0.02328,0.01778
0.09031,0.03608,0.04053,0.05152,0.03758,0.03247,0.02256,0.02593,0.02317,0.04145,0.01636,0.01993,0.02008,0.03704,0.02308,0.02624,0.01042,0.02164,0.01504,0.02112,0.01359
0.04035,0.05293,0.0583,0.05601,0.03734,0.03776,0.01961,0.02923,0.02382,0.03656,0.03653,0.0234,0.02275,0.03489,0.03002,0.03258,0.02145,0.01661,0.02198,0.02876,0.01652
0.03175,0.03081,0.04179,0.04848,0.02754,0.03154,0.0164,0.0262,0.02117,0.03063,0.01358,0.02927,0.02611,0.03632,0.0345,0.03681,0.01561,0.01698,0.01616,0.02724,0.01508
0.03096,0.05645,0.06996,0.07634,0.06324,0.03571,0.02563,0.02958,0.02756,0.0637,0.00967,0.0178,0.02118,0.04178,0.02482,0.03113,0.01003,0.02583,0.01953,0.03109,0.01568
0.04895,0.03188,0.043,0.06823,0.04987,0.03838,0.01763,0.0304,0.02294,0.05477,0.012,0.02409,0.01876,0.03626,0.03027,0.02951,0.00785,0.02728,0.01395,0.02321,0.01223
0.10129,0.06196,0.06991,0.08909,0.07175,0.05639,0.03219,0.04665,0.03191,0.07967,0.00991,0.01827,0.01694,0.04053,0.025,0.0258,0.01249,0.02904,0.01997,0.02922,0.01281
0.08746,0.12271,0.14615,0.1134,0.10101,0.06103,0.03571,0.04698,0.04186,0.10745,0.0075,0.03399,0.02768,0.0561,0.03398,0.03933,0.01141,0.0251,0.0359,0.02905,0.01441
0.06084,0.03616,0.04153,0.05752,0.04451,0.02981,0.02268,0.02708,0.02506,0.04684,0.00999,0.02942,0.02389,0.02878,0.02722,0.02995,0.01111,0.02438,0.01348,0.021,0.01482
0.03785,0.02943,0.03346,0.04689,0.03982,0.0283,0.01971,0.03024,0.02258,0.03893,0.0098,0.024,0.02467,0.04379,0.03014,0.0383,0.00871,0.02002,0.01732,0.03445,0.01742
0.03274,0.0363,0.05067,0.05778,0.05,0.03629,0.0307,0.02865,0.03216,0.04544,0.0075,0.01642,0.01497,0.03717,0.0176,0.02004,0.00739,0.02545,0.01424,0.02832,0.01149
0.05316,0.03208,0.0305,0.05224,0.0359,0.03463,0.0272,0.02974,0.03256,0.03653,0.01084,0.02553,0.02267,0.02504,0.02944,0.03425,0.01084,0.02468,0.01277,0.02314,0.01546
0.04917,0.02536,0.03275,0.05436,0.03403,0.03972,0.02579,0.0404,0.02896,0.03428,0.00855,0.02698,0.02526,0.03618,0.0288,0.02467,0.012,0.02272,0.01231,0.02697,0.01313
0.0403,0.04208,0.04091,0.04977,0.03952,0.0348,0.03373,0.04215,0.04024,0.03882,0.00959,0.02018,0.01988,0.03503,0.03539,0.04292,0.01151,0.02406,0.01916,0.02973,0.01547
0.0303,0.04926,0.0505,0.05785,0.0324,0.06047,0.01962,0.05451,0.02575,0.03524,0.0119,0.0258,0.02195,0.04983,0.03323,0.04231,0.01361,0.02527,0.01685,0.0252,0.01548
0.06345,0.0407,0.0473,0.04579,0.02806,0.03585,0.02275,0.02747,0.02148,0.03078,0.01116,0.02268,0.02246,0.0376,0.03352,0.03331,0.00992,0.02348,0.01568,0.02523,0.02023
0.07137,0.0236,0.02814,0.04863,0.03754,0.04663,0.02826,0.03729,0.02851,0.03795,0.01216,0.02591,0.02121,0.02519,0.03052,0.03032,0.01455,0.02232,0.01378,0.01653,0.01905
0.03566,0.02972,0.03424,0.06224,0.03574,0.04998,0.02314,0.04574,0.03099,0.03899,0.01521,0.03098,0.02706,0.03703,0.04245,0.049,0.01132,0.01871,0.01262,0.02678,0.02195
0.06148,0.03775,0.04932,0.06346,0.03963,0.04535,0.02837,0.03738,0.02905,0.04099,0.00698,0.0237,0.01944,0.04019,0.02736,0.0303,0.00981,0.01984,0.01541,0.02543,0.01566
0.03421,0.03134,0.04855,0.06812,0.04755,0.04983,0.02699,0.03589,0.0269,0.052,0.01388,0.03137,0.0279,0.038,0.04224,0.0432,0.01045,0.02175,0.01243,0.03428,0.01918
0.06337,0.03281,0.04519,0.07149,0.05479,0.044,0.03398,0.03478,0.04188,0.05611,0.02122,0.02861,0.03199,0.03549,0.05576,0.06747,0.0208,0.02011,0.01546,0.02657,0.026
0.08857,0.03226,0.04058,0.06381,0.04927,0.04277,0.02622,0.04222,0.03331,0.05463,0.00926,0.02829,0.02731,0.03138,0.04198,0.04269,0.0191,0.0206,0.01598,0.02123,0.01848
0.06249,0.04156,0.04345,0.06117,0.0439,0.03636,0.01908,0.03361,0.02517,0.04687,0.0093,0.03379,0.02639,0.03191,0.02846,0.03771,0.0209,0.02515,0.01828,0.02601,0.01729
0.04391,0.02746,0.03037,0.07831,0.05847,0.05063,0.03575,0.03002,0.03288,0.06163,0.008,0.03182,0.02598,0.02506,0.02509,0.03804,0.0155,0.02498,0.01844,0.02108,0.01374
0.07297,0.03984,0.053,0.04974,0.05139,0.03255,0.03368,0.0264,0.03046,0.04276,0.00924,0.02491,0.02803,0.04733,0.03063,0.03129,0.01658,0.01532,0.01759,0.03661,0.01527
0.06131,0.0395,0.04707,0.0807,0.05731,0.04956,0.02767,0.04443,0.02945,0.06036,0.04625,0.02372,0.02334,0.03899,0.0239,0.02976,0.01978,0.02023,0.01824,0.02898,0.01448
0.07596,0.04445,0.04974,0.04425,0.03064,0.027,0.01554,0.02437,0.0194,0.0301,0.19928,0.02912,0.02637,0.03704,0.03312,0.03385,0.02965,0.02035,0.01519,0.02424,0.01607
0.09138,0.03547,0.0479,0.05447,0.03305,0.03878,0.01958,0.03012,0.02235,0.0349,0.0564,0.03045,0.02498,0.02934,0.04092,0.04227,0.0236,0.02145,0.01388,0.02122,0.02033
0.09411,0.02748,0.03099,0.06137,0.05932,0.02929,0.0245,0.02735,0.02871,0.05427,0.02693,0.03105,0.03112,0.0319,0.0579,0.05651,0.01897,0.02081,0.01327,0.02376,0.0194
0.10357,0.02224,0.0235,0.05031,0.035,0.0404,0.01557,0.03064,0.02089,0.03337,0.05758,0.01876,0.02006,0.02306,0.02709,0.02583,0.02379,0.0241,0.01202,0.02002,0.0178
0.06392,0.03366,0.03727,0.0484,0.03327,0.0331,0.02423,0.0268,0.0267,0.03307,0.03514,0.02549,0.0277,0.02962,0.03229,0.03433,0.05382,0.01812,0.01251,0.0211,0.01849
0.04657,0.03667,0.04154,0.03699,0.03282,0.03282,0.03682,0.03218,0.03543,0.02927,0.09133,0.02548,0.02414,0.0308,0.03241,0.03977,0.05112,0.01769,0.01626,0.02196,0.02019
0.03723,0.03323,0.04456,0.04523,0.02636,0.05446,0.02078,0.04131,0.01993,0.0282,0.21056,0.03323,0.02602,0.0257,0.03396,0.0404,0.06346,0.01689,0.01298,0.02006,0.0173
0.08244,0.03537,0.03562,0.05153,0.02933,0.04347,0.0285,0.03986,0.032,0.03309,0.1693,0.03342,0.03313,0.03213,0.03547,0.03815,0.04892,0.02028,0.01561,0.02195,0.02239
0.05751,0.04528,0.04318,0.05551,0.03925,0.04702,0.02314,0.0423,0.03271,0.04332,0.0916,0.02757,0.02497,0.02496,0.03033,0.03639,0.02489,0.01845,0.01483,0.01796,0.01771
0.03964,0.02223,0.02912,0.05468,0.0351,0.02944,0.01957,0.02786,0.02516,0.04077,0.25961,0.02579,0.02577,0.02692,0.0327,0.03513,0.10742,0.01819,0.01212,0.02329,0.01994
0.03455,0.02801,0.02865,0.04237,0.02803,0.03275,0.01725,0.02919,0.01988,0.02805,0.0135,0.02128,0.01868,0.02578,0.02706,0.02998,0.02124,0.02894,0.01151,0.01817,0.0159
0.06227,0.02629,0.03139,0.07036,0.04454,0.04206,0.02514,0.03295,0.025,0.05079,0.11632,0.03196,0.02689,0.02558,0.02994,0.03755,0.05341,0.02239,0.01056,0.01774,0.01588
0.05786,0.02148,0.02656,0.0569,0.04132,0.03821,0.03678,0.03116,0.03597,0.0377,0.04143,0.02766,0.02763,0.02613,0.03765,0.03914,0.02752,0.01426,0.01105,0.02159,0.02268
0.04194,0.03026,0.02933,0.03708,0.02631,0.04169,0.02858,0.02781,0.02788,0.02704,0.02681,0.02819,0.02789,0.03403,0.03564,0.0443,0.02729,0.02402,0.01291,0.02256,0.02176
0.03336,0.0363,0.0537,0.04864,0.02938,0.04436,0.02074,0.04494,0.02839,0.02949,0.01903,0.02699,0.02644,0.05142,0.03373,0.03512,0.01899,0.01817,0.01396,0.03381,0.01991
0.05427,0.03288,0.03977,0.05209,0.0523,0.03652,0.0249,0.03587,0.03419,0.0482,0.01255,0.02333,0.02038,0.04026,0.02867,0.03348,0.02104,0.01834,0.01512,0.02852,0.01645
0.04152,0.03571,0.03655,0.05296,0.04411,0.04638,0.03622,0.04328,0.04072,0.04079,0.00776,0.01922,0.01625,0.0231,0.01944,0.01907,0.01426,0.02009,0.01638,0.01759,0.01023
0.03291,0.03063,0.03968,0.04871,0.03122,0.03878,0.02318,0.03167,0.0309,0.03325,0.00974,0.0202,0.01583,0.02322,0.02355,0.02745,0.01537,0.02095,0.01233,0.02064,0.0142
0.03796,0.02665,0.0321,0.04024,0.02446,0.03374,0.01687,0.02271,0.0232,0.02877,0.00865,0.0265,0.02348,0.02327,0.03367,0.03864,0.01698,0.02655,0.01121,0.01875,0.01777
0.03894,0.02563,0.02746,0.05895,0.04687,0.02737,0.02293,0.02716,0.02692,0.04954,0.00949,0.01873,0.01967,0.02157,0.02462,0.02499,0.01673,0.02423,0.01176,0.01879,0.01534
0.07479,0.02653,0.03664,0.06084,0.05328,0.04334,0.02621,0.03744,0.02808,0.0547,0.0151,0.02314,0.0236,0.03071,0.03172,0.02632,0.01958,0.02377,0.01286,0.02209,0.02213
0.09022,0.02868,0.04063,0.04685,0.03282,0.04117,0.01653,0.03604,0.02429,0.03247,0.01128,0.02132,0.02392,0.039,0.02786,0.02978,0.0163,0.02892,0.01586,0.02731,0.01551
0.062,0.02519,0.03495,0.04748,0.03616,0.04386,0.02098,0.05763,0.03592,0.03776,0.02231,0.02161,0.02017,0.0378,0.02159,0.0233,0.02103,0.03014,0.01398,0.02784,0.01228
0.05891,0.04253,0.04627,0.04814,0.02683,0.03357,0.0236,0.03449,0.02933,0.03084,0.01026,0.02391,0.0184,0.03314,0.02336,0.02587,0.02131,0.0233,0.01777,0.02714,0.01166
0.03949,0.04896,0.06638,0.05299,0.03538,0.03762,0.03232,0.03632,0.0411,0.03785,0.0341,0.02327,0.02054,0.03612,0.02657,0.02803,0.02296,0.02217,0.01574,0.02449,0.01446
0.0407,0.04364,0.05833,0.05156,0.04283,0.04919,0.03196,0.07493,0.05581,0.04404,0.04107,0.02112,0.01985,0.03508,0.02043,0.02324,0.03626,0.02276,0.01368,0.02287,0.01467
0.06475,0.03167,0.04189,0.05996,0.04556,0.05,0.03001,0.06432,0.05313,0.04572,0.01981,0.02916,0.03295,0.03098,0.03295,0.03207,0.02583,0.02646,0.01587,0.02056,0.02302
0.03682,0.02476,0.02956,0.0649,0.03583,0.05105,0.0317,0.04617,0.03602,0.03868,0.036,0.0311,0.02596,0.0238,0.04736,0.05066,0.01798,0.02463,0.01133,0.0246,0.01967
0.04368,0.02772,0.02935,0.06332,0.04638,0.03441,0.02636,0.02818,0.02803,0.04629,0.01168,0.03276,0.02458,0.03652,0.03264,0.0423,0.01534,0.02297,0.01466,0.02912,0.01565
0.04107,0.02139,0.0323,0.05132,0.04088,0.02532,0.01928,0.02324,0.01869,0.04048,0.01076,0.01586,0.01832,0.03353,0.03786,0.03501,0.01793,0.02251,0.01017,0.02805,0.01903
0.04426,0.03096,0.04186,0.05171,0.0387,0.02933,0.01935,0.02202,0.02039,0.0401,0.00695,0.01633,0.01549,0.02642,0.02064,0.02293,0.01489,0.02311,0.01605,0.02124,0.0154
0.05662,0.02205,0.02456,0.03776,0.02339,0.03095,0.01525,0.01911,0.0157,0.02275,0.00753,0.01838,0.01793,0.02308,0.02405,0.02726,0.01312,0.01817,0.00978,0.01901,0.01338
0.03868,0.02461,0.02972,0.05334,0.03757,0.0339,0.02078,0.0279,0.02293,0.03696,0.00719,0.01844,0.01709,0.02322,0.02202,0.02864,0.01537,0.01994,0.0121,0.0202,0.01372
0.04289,0.02442,0.0216,0.04472,0.03219,0.02362,0.0137,0.02279,0.01856,0.03313,0.02654,0.02264,0.02159,0.02067,0.02701,0.02869,0.02868,0.0192,0.01266,0.01885,0.01617
0.05071,0.02632,0.03161,0.10382,0.08806,0.02727,0.02132,0.03411,0.03184,0.09817,0.07313,0.03071,0.02891,0.0225,0.03769,0.04309,0.06244,0.0169,0.01956,0.02274,0.01953
0.0341,0.02983,0.03431,0.05647,0.03494,0.03249,0.02001,0.02847,0.02551,0.04069,0.15487,0.0298,0.03124,0.02561,0.02599,0.02987,0.04876,0.02768,0.015,0.01876,0.02115
0.04372,0.0268,0.04047,0.06638,0.05022,0.05171,0.02095,0.04834,0.02868,0.05365,0.01132,0.0261,0.02136,0.03543,0.02813,0.03705,0.01824,0.02464,0.01082,0.02759,0.01566
0.06242,0.02343,0.0312,0.05288,0.03565,0.03466,0.017,0.02654,0.02069,0.03962,0.00826,0.02548,0.02206,0.03453,0.03704,0.03874,0.01549,0.02072,0.01295,0.03124,0.01758
0.04826,0.02862,0.04401,0.10351,0.06603,0.03922,0.01954,0.04923,0.0317,0.09165,0.01244,0.02098,0.02056,0.03387,0.02534,0.03294,0.01743,0.02985,0.01096,0.02541,0.01394
0.03504,0.03564,0.04697,0.11502,0.07508,0.0495,0.0267,0.05525,0.04026,0.08971,0.10086,0.02895,0.0272,0.03742,0.02968,0.03216,0.03079,0.02065,0.01185,0.02868,0.02322
0.04248,0.04008,0.05398,0.06898,0.03903,0.04565,0.02238,0.03703,0.0244,0.0426,0.0417,0.02089,0.01739,0.04084,0.02485,0.02581,0.0209,0.02535,0.01666,0.03054,0.01607
0.05011,0.03215,0.04342,0.04269,0.0261,0.03013,0.01406,0.02344,0.01787,0.02661,0.00966,0.02435,0.01599,0.0391,0.01897,0.02598,0.01815,0.02348,0.01843,0.0294,0.01193
0.0706,0.04146,0.04207,0.04136,0.02553,0.03415,0.01552,0.02397,0.01984,0.02478,0.00965,0.03597,0.03368,0.0311,0.02624,0.02903,0.01429,0.01677,0.01669,0.0252,0.01371
0.04665,0.02696,0.03421,0.05186,0.03803,0.03012,0.02213,0.02492,0.02225,0.04107,0.00725,0.02478,0.02592,0.02876,0.02333,0.0297,0.01942,0.01848,0.01253,0.02303,0.01667
0.04123,0.03368,0.04292,0.05586,0.04609,0.0335,0.02051,0.02827,0.02361,0.04621,0.00814,0.02302,0.02623,0.03784,0.02012,0.02325,0.0158,0.01669,0.01566,0.03427,0.01733
0.06131,0.03392,0.04311,0.06063,0.03958,0.03522,0.0202,0.03569,0.02422,0.04568,0.01009,0.02457,0.02163,0.04009,0.0244,0.02512,0.01698,0.01583,0.01248,0.02552,0.01664
0.03756,0.02977,0.03142,0.07155,0.0604,0.05528,0.0367,0.05048,0.04677,0.06048,0.0103,0.01752,0.01766,0.03775,0.02067,0.02143,0.01868,0.02088,0.01471,0.02668,0.01493
0.05894,0.04035,0.04451,0.04896,0.0381,0.04363,0.01773,0.0336,0.02323,0.03755,0.0085,0.02079,0.01849,0.03094,0.0208,0.02671,0.01779,0.0194,0.01552,0.02263,0.01487
0.08479,0.02575,0.03407,0.10429,0.08184,0.04372,0.02199,0.04937,0.03157,0.09944,0.07699,0.02365,0.02414,0.03985,0.0271,0.02588,0.02389,0.0215,0.01418,0.02376,0.01417
0.07112,0.03243,0.03457,0.13027,0.10201,0.04287,0.03746,0.06115,0.05181,0.11425,0.09963,0.03272,0.02972,0.03925,0.03004,0.04053,0.02582,0.02041,0.01467,0.02352,0.01687
0.04441,0.02696,0.03407,0.1508,0.11431,0.05046,0.03164,0.06966,0.04671,0.12797,0.0608,0.03561,0.02655,0.03265,0.0322,0.0332,0.02663,0.02115,0.01307,0.02462,0.01758
0.05302,0.03048,0.03597,0.13455,0.13912,0.04055,0.04296,0.0448,0.04618,0.14569,0.05255,0.02593,0.01943,0.04226,0.03196,0.04037,0.01983,0.01976,0.01372,0.02867,0.01674
0.03442,0.0293,0.03468,0.05862,0.04805,0.05215,0.06281,0.05117,0.06613,0.04713,0.03736,0.02453,0.02155,0.02861,0.03401,0.03975,0.01885,0.0165,0.01267,0.02564,0.01678
0.04637,0.0307,0.04432,0.04609,0.03194,0.03491,0.02796,0.05211,0.05518,0.03364,0.46939,0.03267,0.03411,0.04104,0.03907,0.0448,0.37824,0.01993,0.01541,0.02893,0.02113
0.04103,0.03035,0.03032,0.04793,0.03041,0.06132,0.04624,0.07266,0.05888,0.03087,0.1486,0.03191,0.02937,0.03761,0.0374,0.04297,0.05689,0.0211,0.01428,0.03064,0.01776
0.03956,0.03625,0.04095,0.05599,0.0466,0.05426,0.04353,0.07226,0.04754,0.0456,0.03654,0.02721,0.0273,0.03129,0.03989,0.04021,0.02348,0.01621,0.01442,0.02335,0.01659
0.0538,0.03423,0.0402,0.04878,0.04128,0.03497,0.02642,0.03781,0.03484,0.03988,0.00978,0.02599,0.02074,0.03416,0.02475,0.0272,0.01927,0.01758,0.01507,0.02272,0.01488
0.08052,0.04472,0.04585,0.05449,0.03996,0.05152,0.02378,0.04854,0.02692,0.0423,0.03365,0.02678,0.0203,0.04447,0.02642,0.03359,0.03225,0.01884,0.01743,0.02711,0.01542
0.04945,0.03362,0.03188,0.05637,0.0396,0.05186,0.02007,0.04894,0.02968,0.04321,0.03652,0.02548,0.02525,0.02817,0.04043,0.04487,0.02941,0.01924,0.01499,0.02359,0.02018
0.09165,0.02347,0.02766,0.04313,0.02565,0.03111,0.0185,0.02864,0.0254,0.02582,0.01068,0.02398,0.02398,0.02759,0.03255,0.03157,0.01635,0.0218,0.01057,0.02177,0.0167
0.02966,0.02412,0.03564,0.05062,0.03758,0.03421,0.02914,0.03174,0.03288,0.03708,0.0153,0.02717,0.02727,0.03089,0.03456,0.03566,0.02783,0.01771,0.0106,0.02636,0.01978
0.0557,0.03332,0.03993,0.0373,0.02374,0.02702,0.02335,0.03231,0.02171,0.02514,0.01278,0.03279,0.03449,0.0374,0.04327,0.03933,0.01699,0.02209,0.0119,0.03323,0.0267
0.04618,0.03027,0.03655,0.05679,0.03987,0.03864,0.02262,0.03016,0.02696,0.04043,0.01926,0.02806,0.02572,0.04564,0.03492,0.0321,0.01873,0.01901,0.01596,0.03192,0.01878
0.03208,0.03305,0.03823,0.05688,0.03475,0.03774,0.01911,0.02645,0.02248,0.0375,0.01555,0.02379,0.03648,0.03088,0.03142,0.02956,0.01534,0.02185,0.01328,0.02186,0.02594
0.05346,0.02672,0.02929,0.04843,0.03717,0.02984,0.01835,0.02403,0.02096,0.03759,0.07333,0.03932,0.03158,0.03605,0.04451,0.0454,0.02233,0.02521,0.01252,0.02756,0.02218
0.04437,0.04203,0.0438,0.03969,0.02904,0.0285,0.01694,0.03167,0.02255,0.03064,0.01722,0.02635,0.02251,0.04753,0.03082,0.02758,0.01541,0.01918,0.01746,0.03434,0.01841
0.06352,0.03356,0.04077,0.05495,0.039,0.03464,0.01853,0.02191,0.01681,0.04315,0.06989,0.02903,0.02736,0.03679,0.03805,0.04319,0.04828,0.0183,0.01584,0.03417,0.01979
0.12547,0.02852,0.03115,0.11342,0.10384,0.03042,0.02529,0.03881,0.03223,0.10922,0.1332,0.03875,0.03124,0.03498,0.03034,0.03317,0.05654,0.01839,0.01453,0.03362,0.01935
0.12328,0.03764,0.03781,0.10872,0.08497,0.0486,0.02733,0.05959,0.04081,0.099,0.18127,0.02909,0.02486,0.02907,0.03585,0.03722,0.05393,0.01959,0.01922,0.02297,0.01755
0.05962,0.03369,0.03589,0.08219,0.06512,0.05674,0.03204,0.04315,0.04895,0.06654,0.02391,0.0223,0.02137,0.04155,0.02733,0.03094,0.02357,0.0246,0.0143,0.02921,0.01809
0.065,0.03052,0.03458,0.06376,0.04938,0.04213,0.02391,0.03382,0.03359,0.05248,0.07352,0.03316,0.03556,0.02716,0.04799,0.0486,0.05147,0.02122,0.01507,0.0196,0.02314
0.05782,0.0263,0.03547,0.05447,0.0457,0.04561,0.03387,0.03052,0.03822,0.04356,0.02672,0.02547,0.02563,0.03299,0.03144,0.03929,0.02321,0.01866,0.01308,0.0325,0.01592
0.06699,0.02943,0.03138,0.05912,0.03838,0.03848,0.02957,0.03045,0.02819,0.04442,0.01778,0.02648,0.02358,0.03646,0.02376,0.02545,0.02322,0.01589,0.01712,0.03081,0.01848
0.04908,0.0362,0.04861,0.0471,0.03174,0.02884,0.01685,0.02845,0.02704,0.03607,0.01874,0.02588,0.01992,0.04858,0.02162,0.02938,0.01722,0.02023,0.02259,0.0309,0.01094
0.05525,0.05518,0.05314,0.05369,0.03406,0.03624,0.02163,0.02724,0.02419,0.03103,0.01689,0.02748,0.02035,0.05709,0.03006,0.03565,0.01909,0.02445,0.02161,0.0437,0.01735
0.04883,0.03713,0.04987,0.11072,0.08367,0.04763,0.02601,0.03759,0.02907,0.08736,0.01773,0.03424,0.02565,0.04709,0.03515,0.04623,0.019,0.02542,0.01786,0.04027,0.02039
0.06839,0.03479,0.04405,0.06315,0.05202,0.03379,0.02543,0.03039,0.03325,0.05429,0.01244,0.02227,0.02123,0.03559,0.02898,0.02878,0.01624,0.02398,0.01404,0.0277,0.01815
0.04559,0.02857,0.04147,0.04542,0.03426,0.02627,0.01818,0.0245,0.02597,0.03802,0.00731,0.02836,0.02706,0.03568,0.02909,0.03159,0.01513,0.02542,0.01477,0.02864,0.01529
0.04148,0.02839,0.03291,0.05458,0.04342,0.03023,0.01994,0.03112,0.02523,0.04254,0.01384,0.02859,0.02749,0.03383,0.0336,0.03536,0.02108,0.02523,0.01257,0.02774,0.01608
0.03241,0.03944,0.04331,0.04787,0.03492,0.0341,0.0186,0.02941,0.02158,0.03421,0.01422,0.03654,0.02904,0.03777,0.04322,0.03923,0.01806,0.02063,0.01596,0.02624,0.02143
0.03486,0.03675,0.04312,0.06359,0.04677,0.03762,0.02239,0.0253,0.02441,0.04487,0.00882,0.03673,0.02945,0.04109,0.02512,0.0322,0.01994,0.02085,0.01908,0.03898,0.01761
0.03102,0.03128,0.02637,0.04392,0.02328,0.02889,0.01371,0.01783,0.01442,0.02422,0.00959,0.02448,0.02075,0.03476,0.03043,0.02901,0.0146,0.0256,0.01445,0.02894,0.01589
0.02771,0.03541,0.04398,0.04217,0.03032,0.02199,0.01577,0.02314,0.02152,0.03297,0.03005,0.02677,0.0269,0.03932,0.03315,0.0376,0.02297,0.01683,0.01267,0.02954,0.01848
0.03969,0.03718,0.05092,0.05286,0.0343,0.03646,0.01848,0.02637,0.01901,0.03646,0.0136,0.02618,0.02643,0.0427,0.02947,0.03444,0.02151,0.02208,0.01596,0.03435,0.01994
0.04,0.03064,0.04585,0.04421,0.03037,0.03003,0.01704,0.02093,0.0205,0.02953,0.08387,0.03363,0.03463,0.04061,0.0324,0.03647,0.07951,0.01851,0.01753,0.02347,0.0201
0.05445,0.04445,0.04993,0.03012,0.0248,0.02035,0.01554,0.01635,0.0173,0.0259,0.14302,0.03022,0.02352,0.03485,0.02961,0.03233,0.03375,0.01674,0.02444,0.02752,0.0172
0.04527,0.03517,0.0477,0.0392,0.01997,0.0273,0.01163,0.01768,0.01539,0.02328,0.29282,0.0457,0.04202,0.03872,0.04845,0.04801,0.13357,0.01788,0.01462,0.03114,0.03084
0.05638,0.02818,0.03614,0.0401,0.02295,0.02654,0.01401,0.01899,0.01628,0.02527,0.12401,0.04448,0.03691,0.03659,0.05614,0.04684,0.03617,0.01979,0.01562,0.02651,0.0267
0.06083,0.06859,0.06623,0.0508,0.03161,0.03238,0.01682,0.02449,0.01898,0.03403,0.06922,0.04057,0.03433,0.06458,0.04438,0.04928,0.06323,0.01825,0.02948,0.04073,0.02613
0.0348,0.02604,0.03513,0.0364,0.02786,0.02211,0.02218,0.02572,0.02704,0.03157,0.1183,0.03095,0.02512,0.03467,0.03147,0.03425,0.05097,0.02049,0.0137,0.0253,0.01638
0.03452,0.02878,0.03533,0.04198,0.02704,0.03321,0.01626,0.02123,0.01679,0.02526,0.09529,0.03335,0.02803,0.04477,0.03681,0.03957,0.0386,0.0178,0.01857,0.02358,0.02278
0.07917,0.03124,0.04243,0.04881,0.02684,0.03137,0.02733,0.03021,0.03088,0.02888,0.09483,0.02677,0.02429,0.04542,0.02648,0.02995,0.10054,0.03034,0.01429,0.03702,0.01716
0.0486,0.03256,0.03926,0.04659,0.02833,0.04146,0.02144,0.0399,0.02755,0.02979,0.11852,0.02518,0.02507,0.03433,0.03108,0.0331,0.1168,0.0228,0.01837,0.03019,0.01899
0.03959,0.03621,0.04195,0.05208,0.03659,0.03316,0.02591,0.03665,0.04169,0.0341,0.01669,0.03303,0.02478,0.03062,0.03981,0.04332,0.04613,0.02581,0.01444,0.0248,0.01869
0.0435,0.07138,0.07376,0.05036,0.04148,0.04062,0.01683,0.03643,0.02126,0.04222,0.02268,0.02607,0.02427,0.03865,0.032,0.02882,0.02608,0.02018,0.01827,0.02657,0.02044
0.02647,0.04046,0.04432,0.048,0.03241,0.0477,0.02058,0.04258,0.02471,0.03151,0.01546,0.03558,0.03092,0.03769,0.02771,0.03674,0.02513,0.02065,0.01594,0.03268,0.01835
0.04143,0.03125,0.04222,0.04574,0.02836,0.02949,0.0152,0.02456,0.01677,0.03101,0.10108,0.03063,0.02745,0.03614,0.03064,0.03858,0.02773,0.02595,0.01233,0.02916,0.01719
0.10251,0.03981,0.04176,0.04918,0.04114,0.0326,0.01948,0.02462,0.02263,0.03696,0.20166,0.02945,0.02794,0.03928,0.03535,0.04794,0.06459,0.02223,0.01841,0.02835,0.02054
0.10961,0.03355,0.04416,0.04455,0.02801,0.03086,0.01405,0.02147,0.01676,0.03028,0.06511,0.02575,0.02529,0.0339,0.03413,0.03819,0.03997,0.02811,0.01419,0.03109,0.02065
0.0962,0.06482,0.07852,0.03562,0.02374,0.02215,0.01437,0.02001,0.01708,0.0244,0.06348,0.03313,0.02783,0.03922,0.03377,0.04134,0.0993,0.02559,0.02007,0.03016,0.01775
0.09248,0.02767,0.03229,0.04808,0.04082,0.03031,0.02132,0.0258,0.02679,0.03912,0.02097,0.02747,0.02739,0.0345,0.03112,0.03396,0.0203,0.02123,0.01725,0.02505,0.01914
0.06481,0.04754,0.05691,0.05329,0.0348,0.0305,0.01666,0.02718,0.02028,0.03505,0.0239,0.04309,0.04229,0.03827,0.07396,0.07152,0.0198,0.01821,0.01819,0.02523,0.02855
0.03827,0.04169,0.06238,0.07722,0.05707,0.03405,0.01813,0.02709,0.0255,0.06618,0.01192,0.02742,0.02151,0.03089,0.02997,0.03551,0.0266,0.01954,0.01624,0.02123,0.01959
0.04499,0.04381,0.05221,0.04589,0.03619,0.02937,0.01779,0.02319,0.02383,0.03538,0.01671,0.02554,0.02471,0.03615,0.03255,0.03203,0.03303,0.0189,0.01873,0.02471,0.02005
0.04372,0.03052,0.03261,0.19968,0.03268,0.185,0.02689,0.05772,0.02317,0.03788,0.02028,0.03463,0.02767,0.02608,0.03236,0.04506,0.02617,0.01639,0.01279,0.02057,0.0189
0.06032,0.0483,0.06631,0.0775,0.06001,0.04237,0.02418,0.04109,0.03312,0.06564,0.0152,0.02532,0.02524,0.05183,0.03551,0.03498,0.03663,0.01803,0.01706,0.02755,0.01704
0.04965,0.04674,0.06673,0.09844,0.07995,0.03556,0.02642,0.03976,0.03157,0.08893,0.00833,0.03153,0.02563,0.04976,0.03438,0.03907,0.01398,0.02144,0.01559,0.03244,0.01809
0.04315,0.05348,0.07198,0.04679,0.03295,0.03303,0.01718,0.0242,0.02411,0.03479,0.02284,0.02591,0.02448,0.05515,0.02912,0.0336,0.03307,0.01691,0.01848,0.03261,0.01574
0.06037,0.04152,0.06036,0.04213,0.03036,0.02882,0.01914,0.02017,0.02187,0.03092,0.06256,0.03298,0.02712,0.03423,0.0495,0.05312,0.03662,0.01573,0.01559,0.02736,0.02238
0.0644,0.04856,0.0686,0.05701,0.0445,0.03579,0.0192,0.025,0.02306,0.0442,0.01531,0.02921,0.02409,0.03542,0.03135,0.03787,0.02353,0.01838,0.01868,0.02724,0.01561
0.04452,0.06024,0.10279,0.06709,0.04887,0.03313,0.0173,0.02458,0.02182,0.04967,0.01183,0.03355,0.02997,0.05493,0.04176,0.04504,0.01677,0.01794,0.01994,0.03369,0.01868
0.04092,0.03655,0.04781,0.04614,0.03659,0.02902,0.01854,0.02147,0.02151,0.03415,0.01121,0.02757,0.0188,0.03332,0.02776,0.03833,0.02268,0.01849,0.01455,0.02497,0.01564
0.05705,0.07433,0.08059,0.10798,0.08003,0.04595,0.02609,0.03946,0.02511,0.08747,0.01126,0.02579,0.02264,0.03897,0.03664,0.03744,0.02146,0.01694,0.02522,0.02382,0.01723
0.06264,0.09217,0.11525,0.04889,0.04605,0.03243,0.02553,0.0296,0.02483,0.03999,0.00831,0.02988,0.02396,0.05824,0.03133,0.03269,0.01936,0.01778,0.03138,0.03477,0.01584
0.05871,0.06721,0.07993,0.06729,0.04843,0.03681,0.02153,0.02985,0.02507,0.0521,0.00904,0.03085,0.02897,0.05404,0.03766,0.04081,0.02155,0.01824,0.02146,0.03307,0.02078
0.04659,0.06649,0.0713,0.12239,0.10704,0.03998,0.03101,0.0533,0.04393,0.11941,0.0178,0.02745,0.02554,0.05542,0.03329,0.03275,0.03046,0.01724,0.03226,0.03697,0.0186
0.07638,0.05648,0.05026,0.05201,0.04114,0.03455,0.02221,0.03092,0.02712,0.04185,0.01204,0.02104,0.02208,0.05503,0.04282,0.04216,0.01965,0.01534,0.02396,0.05563,0.01909
0.05713,0.03593,0.0511,0.07646,0.06271,0.03422,0.02266,0.0289,0.02729,0.06916,0.00836,0.02611,0.02566,0.05583,0.03051,0.03391,0.01815,0.01708,0.02177,0.03263,0.01705
0.05774,0.03563,0.03861,0.11278,0.09631,0.03272,0.03541,0.03389,0.04154,0.0997,0.00869,0.02598,0.02508,0.04083,0.0289,0.03162,0.01874,0.01389,0.01691,0.02491,0.01619
0.03839,0.03928,0.04159,0.07176,0.05418,0.03741,0.02028,0.04107,0.02906,0.05895,0.01549,0.03678,0.03638,0.04065,0.05224,0.06281,0.02764,0.02072,0.01703,0.03142,0.02563
0.03454,0.03135,0.04481,0.11206,0.12837,0.04279,0.05245,0.04116,0.04955,0.11094,0.01233,0.03448,0.02483,0.0523,0.03936,0.05321,0.02134,0.0218,0.01524,0.02751,0.01643
0.04172,0.04646,0.05087,0.06946,0.05319,0.04126,0.02556,0.03436,0.03145,0.05725,0.00901,0.02242,0.02672,0.03756,0.0297,0.03157,0.01661,0.01956,0.02168,0.03284,0.01973
0.05441,0.03683,0.03885,0.10395,0.07867,0.03836,0.03068,0.04127,0.04001,0.08129,0.01125,0.03466,0.03243,0.04709,0.0413,0.04326,0.01978,0.0207,0.02326,0.04116,0.02225
0.03912,0.06823,0.06049,0.06307,0.04759,0.04019,0.0295,0.03546,0.0376,0.04946,0.01091,0.03392,0.02881,0.04924,0.04626,0.06192,0.02135,0.0176,0.03262,0.03656,0.02166
0.0405,0.05054,0.057,0.05517,0.04769,0.03615,0.0298,0.03778,0.03604,0.0443,0.01115,0.02787,0.02679,0.04475,0.03463,0.04076,0.01641,0.02164,0.02621,0.05093,0.02021
0.06455,0.04685,0.05074,0.03868,0.02544,0.02988,0.01585,0.02514,0.02018,0.02802,0.01461,0.02454,0.02558,0.05622,0.05262,0.0494,0.02123,0.02101,0.01788,0.0395,0.0226
0.09312,0.04583,0.06615,0.05719,0.04983,0.0429,0.02783,0.03493,0.0341,0.04439,0.02107,0.02712,0.02383,0.05258,0.05096,0.0579,0.02266,0.01701,0.01824,0.03125,0.02006
0.06107,0.04578,0.05623,0.09239,0.0708,0.05326,0.02659,0.03687,0.02697,0.07182,0.01676,0.02904,0.03252,0.03656,0.06525,0.07109,0.02586,0.02344,0.02104,0.02631,0.02445
0.04306,0.03808,0.05238,0.07731,0.057,0.06332,0.03173,0.04828,0.03768,0.06301,0.01308,0.03135,0.02916,0.03643,0.05768,0.06176,0.02113,0.02087,0.01621,0.02488,0.02557
0.06102,0.04329,0.04146,0.04034,0.03644,0.03577,0.02491,0.02529,0.02619,0.03252,0.02492,0.04441,0.03845,0.03663,0.05099,0.04356,0.02631,0.0195,0.01783,0.02707,0.02543
0.03986,0.04297,0.05566,0.0535,0.03173,0.03863,0.01852,0.03723,0.02233,0.03491,0.01542,0.03187,0.02949,0.03898,0.0417,0.05172,0.02348,0.0155,0.01539,0.02549,0.02423
0.03015,0.06471,0.07578,0.08252,0.05631,0.05339,0.03069,0.05099,0.03841,0.06167,0.01188,0.02896,0.03005,0.04819,0.04096,0.03871,0.01932,0.01693,0.02008,0.02468,0.02372
0.07025,0.05512,0.05473,0.05731,0.03568,0.04157,0.0195,0.0274,0.02614,0.03791,0.01061,0.02919,0.0272,0.04599,0.04245,0.04334,0.02155,0.01378,0.0259,0.03472,0.02442
0.05715,0.04168,0.05392,0.04229,0.03208,0.03101,0.0205,0.02534,0.02498,0.03194,0.0092,0.0298,0.02789,0.06513,0.04481,0.04037,0.02071,0.02012,0.02293,0.04712,0.02647
0.04054,0.03771,0.05542,0.04746,0.03841,0.02941,0.024,0.03133,0.03182,0.03706,0.0105,0.03565,0.03204,0.03863,0.03752,0.03645,0.0185,0.0246,0.01546,0.02709,0.02338
0.08805,0.04369,0.05468,0.04759,0.04259,0.0324,0.02352,0.02811,0.02636,0.03764,0.0133,0.03823,0.02501,0.04364,0.03314,0.04063,0.01799,0.01277,0.01703,0.03429,0.01642
0.12309,0.04577,0.06132,0.05899,0.05286,0.04006,0.02807,0.03644,0.03943,0.04959,0.02172,0.02959,0.02278,0.03642,0.03802,0.0425,0.02244,0.02026,0.01764,0.02302,0.02178
0.08942,0.08318,0.08736,0.04204,0.03181,0.0279,0.02749,0.02568,0.02995,0.03435,0.02161,0.03235,0.03771,0.03828,0.05629,0.05461,0.02266,0.0181,0.02349,0.02772,0.03236
0.174,0.03882,0.05184,0.04876,0.03201,0.03784,0.01584,0.03383,0.0229,0.03652,0.01371,0.03441,0.02544,0.03554,0.03713,0.04392,0.02351,0.01884,0.01552,0.02594,0.01971
0.07237,0.03779,0.05401,0.04409,0.03611,0.04174,0.01958,0.04557,0.02241,0.03468,0.01572,0.03952,0.03443,0.03563,0.04199,0.05142,0.02317,0.02644,0.01443,0.02543,0.0222
0.06896,0.07809,0.06977,0.04847,0.03798,0.03541,0.02705,0.03828,0.03911,0.03647,0.01063,0.032,0.03697,0.03518,0.03441,0.03926,0.02282,0.03018,0.02627,0.02368,0.02466
0.06469,0.05804,0.0739,0.05004,0.03004,0.04328,0.01989,0.04609,0.02805,0.03168,0.0146,0.02576,0.02253,0.04713,0.04247,0.05505,0.01811,0.0219,0.02038,0.02787,0.01897
0.05157,0.09064,0.08362,0.04675,0.03435,0.02972,0.03255,0.03048,0.03949,0.03621,0.00797,0.03253,0.03276,0.04179,0.03426,0.03468,0.01634,0.02181,0.02835,0.02734,0.02069
0.03146,0.0541,0.05872,0.07388,0.03942,0.04515,0.02391,0.03205,0.02765,0.04313,0.00834,0.04446,0.04146,0.03576,0.04357,0.04987,0.01968,0.01556,0.01874,0.02789,0.01895
0.03801,0.02492,0.03299,0.08867,0.0485,0.04158,0.03122,0.03771,0.03339,0.05817,0.01334,0.02887,0.02836,0.02778,0.03662,0.04285,0.01805,0.02893,0.01334,0.02339,0.01729
0.08019,0.11922,0.13966,0.06209,0.05689,0.03006,0.03331,0.03674,0.04042,0.05039,0.01177,0.03239,0.02959,0.06654,0.04868,0.04936,0.01994,0.02379,0.03097,0.03657,0.02189
0.0326,0.0564,0.05435,0.07176,0.04868,0.0391,0.03132,0.04493,0.04445,0.05395,0.01386,0.04391,0.02895,0.04248,0.03119,0.04555,0.0213,0.02382,0.0219,0.02558,0.02121
0.03286,0.10933,0.14767,0.04526,0.03044,0.0286,0.02241,0.02557,0.02707,0.02802,0.01332,0.02697,0.02684,0.06751,0.04241,0.04053,0.02116,0.01597,0.02471,0.03848,0.02406
0.03701,0.0546,0.07204,0.07173,0.06015,0.02769,0.03101,0.02988,0.03769,0.06469,0.01162,0.02673,0.02623,0.05874,0.03521,0.03935,0.01861,0.01778,0.01617,0.03689,0.02152
0.05184,0.04387,0.05841,0.05921,0.04245,0.03934,0.01891,0.02615,0.02229,0.04157,0.01086,0.03128,0.03083,0.03814,0.03293,0.04565,0.01719,0.01829,0.01903,0.03178,0.01986
0.03981,0.05272,0.06259,0.0381,0.02321,0.0302,0.01579,0.01943,0.01766,0.02336,0.01475,0.02991,0.0374,0.03959,0.03881,0.04458,0.01844,0.02209,0.02105,0.02121,0.01815
0.0402,0.04561,0.05551,0.04064,0.02892,0.02335,0.01303,0.01735,0.01459,0.02847,0.01027,0.028,0.02564,0.06895,0.04419,0.05007,0.02064,0.01851,0.02936,0.04441,0.01784
0.0824,0.07608,0.09648,0.0577,0.05034,0.03467,0.02462,0.02669,0.02772,0.04809,0.0114,0.02869,0.03448,0.06789,0.04367,0.0453,0.01605,0.01489,0.02265,0.03877,0.02504
0.05721,0.05568,0.05378,0.06624,0.06175,0.05137,0.03222,0.03518,0.03009,0.05174,0.00981,0.01939,0.01752,0.05224,0.02277,0.02888,0.01718,0.02427,0.01766,0.03159,0.01763
0.13984,0.10073,0.14272,0.04798,0.02716,0.03376,0.01301,0.02808,0.02085,0.03296,0.01475,0.0255,0.03159,0.07336,0.05506,0.06999,0.02169,0.01742,0.02759,0.03831,0.02064
0.116,0.0593,0.08626,0.11114,0.08034,0.04387,0.03372,0.04599,0.04135,0.09021,0.01227,0.05448,0.03981,0.05722,0.04413,0.04405,0.01791,0.02774,0.02194,0.04004,0.0251
0.03608,0.1556,0.17248,0.13301,0.1246,0.04392,0.04322,0.03843,0.03741,0.1215,0.01671,0.03792,0.0459,0.06164,0.05267,0.05812,0.02154,0.02344,0.03766,0.03205,0.02658
0.03028,0.05178,0.06226,0.05107,0.03332,0.03422,0.01597,0.02784,0.01994,0.03441,0.00863,0.02964,0.02893,0.04381,0.02601,0.03094,0.01646,0.02207,0.01659,0.02776,0.02068
0.02685,0.04001,0.05876,0.05101,0.03737,0.04202,0.02043,0.03899,0.0241,0.03402,0.01824,0.0362,0.04064,0.03682,0.05593,0.059,0.01778,0.01916,0.01538,0.02509,0.0215
0.07248,0.02685,0.03484,0.05111,0.04759,0.02741,0.02085,0.02949,0.02692,0.04812,0.01059,0.03598,0.0422,0.02478,0.06628,0.06535,0.01839,0.0167,0.01448,0.02078,0.02881
0.03356,0.03138,0.03547,0.11066,0.09584,0.03684,0.0296,0.0344,0.03123,0.10299,0.01085,0.02803,0.02926,0.03207,0.05718,0.07473,0.02054,0.01678,0.01442,0.02475,0.02199
0.03322,0.04291,0.04898,0.08445,0.06428,0.03688,0.0232,0.02937,0.02396,0.07136,0.01465,0.04244,0.04085,0.15231,0.04734,0.05702,0.023,0.02418,0.03452,0.06622,0.02811
0.02987,0.07071,0.09444,0.03942,0.02592,0.03098,0.01757,0.0192,0.01562,0.02511,0.01442,0.03366,0.0305,0.05851,0.04544,0.05424,0.02187,0.02202,0.01912,0.03253,0.02544
0.0694,0.0543,0.06937,0.04535,0.03898,0.0307,0.02614,0.0251,0.02988,0.03783,0.00937,0.02657,0.02875,0.04449,0.04708,0.04547,0.01756,0.01656,0.0225,0.03256,0.02203
0.0533,0.06732,0.0887,0.04343,0.02934,0.0306,0.01853,0.02488,0.0209,0.02739,0.0155,0.04368,0.03699,0.04202,0.06264,0.07073,0.02399,0.01963,0.02421,0.02951,0.02406
0.08337,0.04004,0.06074,0.04607,0.025,0.0331,0.01389,0.02617,0.02005,0.02479,0.01688,0.04967,0.04738,0.05016,0.06886,0.07985,0.02252,0.02475,0.01817,0.0358,0.02812
0.02922,0.0491,0.07065,0.04883,0.04472,0.02832,0.02077,0.02938,0.02715,0.04297,0.01798,0.02985,0.02534,0.0551,0.03829,0.04185,0.02156,0.02452,0.02589,0.04518,0.01884
0.0424,0.04945,0.0556,0.05029,0.03802,0.04009,0.01935,0.0324,0.02309,0.03916,0.02589,0.04265,0.03898,0.05743,0.07544,0.10496,0.03796,0.02232,0.02638,0.03068,0.02569
0.06906,0.0531,0.06938,0.05535,0.03304,0.04425,0.02205,0.03776,0.02752,0.0329,0.01273,0.03721,0.03479,0.05829,0.05958,0.07462,0.02799,0.01921,0.02168,0.03065,0.02288
0.0817,0.03337,0.0459,0.05913,0.03572,0.03027,0.01946,0.03514,0.02639,0.04206,0.01201,0.04249,0.04027,0.04154,0.0814,0.09012,0.02574,0.0223,0.01506,0.03145,0.03091
0.03981,0.04237,0.04628,0.0606,0.04003,0.0395,0.03025,0.04648,0.03718,0.04561,0.01531,0.03596,0.029,0.03766,0.04671,0.0544,0.02253,0.01871,0.01883,0.02481,0.0172
0.05045,0.06201,0.06418,0.06825,0.0439,0.05085,0.03,0.03778,0.03584,0.04793,0.01078,0.03448,0.0297,0.05919,0.03373,0.04432,0.01961,0.02069,0.03149,0.03547,0.01724
0.04045,0.08566,0.10817,0.05314,0.03947,0.03125,0.02635,0.02839,0.02963,0.03994,0.0085,0.02402,0.0256,0.09685,0.02612,0.02867,0.0171,0.0277,0.04486,0.10078,0.01709
0.04655,0.04703,0.06309,0.04137,0.03025,0.03146,0.01713,0.02359,0.01965,0.02975,0.00829,0.02767,0.02428,0.06203,0.02698,0.03004,0.01534,0.03334,0.02682,0.05535,0.01599
0.07218,0.06709,0.07262,0.05661,0.0319,0.03491,0.01734,0.02647,0.01865,0.03505,0.01139,0.09704,0.04492,0.06091,0.06548,0.05505,0.02038,0.02452,0.03733,0.05143,0.02943
0.11536,0.06789,0.07056,0.04753,0.03301,0.02887,0.01459,0.02328,0.02069,0.03808,0.01281,0.03744,0.02922,0.06405,0.05223,0.07953,0.01635,0.02477,0.03574,0.04506,0.0191
0.05678,0.04884,0.05585,0.04159,0.02727,0.02529,0.01527,0.02407,0.0184,0.03054,0.01376,0.03874,0.0398,0.05217,0.04751,0.05205,0.01953,0.02502,0.02478,0.04388,0.0222
0.02463,0.03859,0.05198,0.04101,0.02684,0.03528,0.01898,0.02562,0.02169,0.02925,0.01507,0.03484,0.0323,0.04611,0.04964,0.05766,0.02195,0.02103,0.01937,0.02987,0.02781
0.03587,0.03469,0.03741,0.05151,0.02648,0.03523,0.01619,0.02463,0.01871,0.03035,0.01353,0.03187,0.02601,0.03568,0.0429,0.05449,0.01526,0.02496,0.0167,0.02845,0.02194
0.03873,0.05902,0.08784,0.04361,0.03398,0.04203,0.01688,0.04532,0.02859,0.0336,0.01167,0.02836,0.02283,0.06643,0.03486,0.04562,0.01578,0.02262,0.02603,0.04344,0.02396
0.03984,0.03005,0.03874,0.05187,0.03797,0.04646,0.02738,0.05233,0.04009,0.03832,0.01536,0.04244,0.04616,0.03813,0.06462,0.07368,0.02363,0.02341,0.01963,0.03257,0.03707
0.04325,0.03975,0.04324,0.04356,0.03084,0.03893,0.03114,0.03696,0.04935,0.02654,0.01488,0.03711,0.03468,0.03974,0.04802,0.05807,0.01902,0.02447,0.03105,0.03506,0.02684
0.03067,0.0512,0.06622,0.05692,0.0411,0.03774,0.04116,0.03258,0.0429,0.03983,0.01327,0.03594,0.02322,0.0535,0.03429,0.05499,0.01455,0.02822,0.02596,0.03893,0.01313
0.048,0.07071,0.08433,0.07333,0.05011,0.06684,0.05121,0.07876,0.05131,0.0484,0.01317,0.03758,0.03122,0.06932,0.03497,0.03737,0.01347,0.02394,0.03933,0.04779,0.01862
0.03969,0.0564,0.04982,0.05027,0.04095,0.05933,0.02281,0.06524,0.03281,0.03974,0.01552,0.03884,0.05776,0.0479,0.07547,0.06254,0.02102,0.02417,0.03155,0.02789,0.04554
0.0274,0.03768,0.04795,0.04895,0.0328,0.0395,0.03166,0.03608,0.03031,0.0323,0.03778,0.06294,0.05994,0.03759,0.08498,0.08401,0.02841,0.02807,0.01341,0.02549,0.03853
0.03234,0.03709,0.04499,0.04939,0.03231,0.04355,0.01861,0.04233,0.02045,0.03286,0.04099,0.06396,0.0469,0.04414,0.05797,0.06597,0.03829,0.02824,0.02052,0.02588,0.03239
0.04101,0.03714,0.05132,0.05705,0.04681,0.03112,0.02279,0.02886,0.02505,0.05101,0.0459,0.05257,0.03983,0.03512,0.04689,0.06038,0.05429,0.02704,0.01655,0.02848,0.03201
0.05581,0.04904,0.06811,0.04044,0.03193,0.02311,0.01926,0.02089,0.02333,0.03176,0.02798,0.03851,0.03285,0.05328,0.05613,0.0588,0.02682,0.03494,0.01903,0.03634,0.03116
0.04133,0.0464,0.07224,0.0443,0.04191,0.02032,0.0199,0.01875,0.02232,0.04121,0.02019,0.03434,0.03546,0.04107,0.05108,0.05939,0.02358,0.01907,0.01485,0.02713,0.02561
0.03661,0.05588,0.08021,0.03762,0.02941,0.02165,0.01585,0.02044,0.01811,0.02916,0.0136,0.03407,0.03103,0.04536,0.03446,0.0393,0.01437,0.02305,0.02132,0.02749,0.02273
0.03118,0.06358,0.08975,0.03384,0.0236,0.02486,0.01863,0.02565,0.02279,0.0254,0.01322,0.03177,0.02686,0.03628,0.03902,0.0435,0.02377,0.02992,0.01916,0.02524,0.01941
0.05371,0.03422,0.03865,0.03767,0.02287,0.02722,0.02604,0.02143,0.02331,0.02538,0.02017,0.04196,0.04703,0.03378,0.0488,0.06892,0.03132,0.0265,0.02505,0.02908,0.02925
0.09487,0.04907,0.05759,0.04594,0.02546,0.03034,0.01573,0.02111,0.01997,0.02993,0.01555,0.03486,0.03449,0.03947,0.04034,0.04449,0.03191,0.01943,0.02273,0.0227,0.0266
0.12832,0.05515,0.05879,0.05073,0.03068,0.05425,0.02328,0.04531,0.0246,0.034,0.02098,0.03787,0.03302,0.0453,0.0325,0.03837,0.02281,0.02655,0.03911,0.03726,0.01738
0.15759,0.02858,0.03029,0.05105,0.03005,0.04502,0.02332,0.04838,0.03312,0.03357,0.0192,0.03629,0.03412,0.03378,0.05381,0.05359,0.03236,0.02498,0.0157,0.03069,0.02944
0.05104,0.03024,0.0403,0.05186,0.02935,0.03653,0.02602,0.04434,0.03382,0.03322,0.0318,0.06443,0.05727,0.04767,0.05612,0.05717,0.02796,0.02932,0.01768,0.0342,0.03885
0.03901,0.0342,0.0418,0.03716,0.0265,0.02868,0.01868,0.02342,0.02127,0.02672,0.01366,0.05832,0.05454,0.03809,0.08468,0.07889,0.02084,0.0194,0.01124,0.03002,0.03284
0.0483,0.05362,0.06631,0.03384,0.02728,0.02589,0.01579,0.02407,0.01876,0.02908,0.01142,0.03764,0.03627,0.04909,0.04497,0.04079,0.01695,0.02405,0.02131,0.0292,0.02026
0.04489,0.02762,0.03593,0.03872,0.02599,0.03173,0.02158,0.03012,0.02914,0.0291,0.01066,0.03159,0.02433,0.03765,0.03787,0.05225,0.01823,0.03237,0.01326,0.02335,0.0176
0.04457,0.04449,0.04303,0.04374,0.03313,0.04471,0.01951,0.03835,0.02605,0.03265,0.01205,0.03231,0.03042,0.03029,0.03564,0.03906,0.01604,0.02186,0.01797,0.02187,0.01724
0.05357,0.04077,0.04797,0.06612,0.04287,0.04432,0.01675,0.04059,0.02533,0.04811,0.01411,0.03786,0.0394,0.0432,0.04178,0.05345,0.01623,0.01846,0.02069,0.02816,0.02199
0.05302,0.04,0.05674,0.05103,0.03236,0.03667,0.01603,0.0333,0.02668,0.03139,0.01327,0.03164,0.02895,0.04207,0.04251,0.05252,0.01668,0.02464,0.0152,0.02584,0.02091
0.04962,0.03435,0.04513,0.04686,0.02676,0.02903,0.01573,0.02182,0.01838,0.03006,0.02727,0.03561,0.03349,0.03221,0.04761,0.05676,0.02328,0.02167,0.02408,0.02478,0.02145
0.03865,0.04452,0.05163,0.04323,0.02678,0.0437,0.01613,0.04851,0.02664,0.02805,0.01389,0.02658,0.02692,0.03911,0.04469,0.05438,0.01527,0.01791,0.01842,0.02422,0.02106
0.04159,0.07682,0.06446,0.05587,0.03308,0.03957,0.02048,0.03679,0.02983,0.03584,0.01232,0.03133,0.02728,0.0373,0.03267,0.04262,0.01293,0.02629,0.02764,0.03072,0.01596
0.03526,0.06428,0.10527,0.05098,0.03252,0.03435,0.0158,0.02588,0.0174,0.03463,0.01571,0.03286,0.02889,0.06114,0.04091,0.04271,0.03251,0.02458,0.01764,0.0281,0.01878
0.04803,0.06097,0.09073,0.05215,0.03531,0.04287,0.02398,0.03048,0.02384,0.03627,0.02578,0.03261,0.03594,0.06536,0.0499,0.05386,0.02171,0.02767,0.03124,0.04039,0.02819
0.04314,0.0572,0.07015,0.04931,0.02933,0.04211,0.02382,0.03475,0.02762,0.03148,0.00908,0.02846,0.02468,0.05698,0.0309,0.03327,0.01376,0.02204,0.02386,0.04245,0.01909
0.04402,0.04229,0.06065,0.0499,0.05335,0.03771,0.03807,0.03102,0.03459,0.04251,0.01115,0.03104,0.02437,0.04628,0.03085,0.03907,0.01162,0.02846,0.02282,0.04386,0.01635
0.05067,0.05396,0.07655,0.0401,0.04632,0.02779,0.03434,0.02176,0.02367,0.03406,0.01541,0.03296,0.03302,0.05393,0.0377,0.03975,0.02186,0.02609,0.01926,0.02952,0.01838
0.04805,0.08742,0.10693,0.0431,0.02553,0.03324,0.01282,0.02441,0.01682,0.02682,0.01513,0.03201,0.03162,0.05532,0.04099,0.0405,0.02366,0.02308,0.0303,0.0311,0.01869
0.03809,0.06069,0.06618,0.05512,0.03478,0.03817,0.02316,0.02672,0.02613,0.03548,0.01508,0.03481,0.03396,0.05463,0.03085,0.0377,0.02472,0.02037,0.01985,0.03301,0.02174
0.04164,0.052,0.04438,0.07738,0.04422,0.04744,0.02122,0.03408,0.02408,0.05018,0.01303,0.02462,0.03122,0.03202,0.03595,0.04234,0.01607,0.02795,0.01625,0.02737,0.01891
0.04226,0.03861,0.04657,0.10814,0.08367,0.04359,0.03411,0.04912,0.04797,0.08855,0.01277,0.03212,0.03496,0.04511,0.04883,0.04421,0.02133,0.03509,0.01648,0.03279,0.02859
0.05756,0.03799,0.05733,0.04474,0.03437,0.03442,0.02022,0.02715,0.02409,0.03349,0.01046,0.03101,0.03342,0.04633,0.04074,0.05342,0.01231,0.04338,0.01603,0.02871,0.01964
0.03519,0.02799,0.04124,0.18137,0.15217,0.04947,0.0364,0.08669,0.05357,0.16842,0.01015,0.02816,0.02782,0.04378,0.03015,0.03642,0.01691,0.03577,0.01283,0.03069,0.01865
0.08043,0.04309,0.04881,0.05846,0.04441,0.0304,0.02233,0.02963,0.02912,0.04834,0.01235,0.02034,0.02549,0.04277,0.03505,0.03448,0.01623,0.03113,0.01841,0.02525,0.01989
0.0554,0.04557,0.05594,0.09544,0.09617,0.02535,0.03316,0.03355,0.03305,0.09674,0.01066,0.0352,0.03358,0.05276,0.05998,0.05542,0.01408,0.01991,0.01709,0.02958,0.02245
0.06418,0.03103,0.05418,0.04763,0.03993,0.02253,0.02087,0.02467,0.02577,0.03708,0.0142,0.03328,0.04102,0.05126,0.06305,0.06903,0.01812,0.02405,0.00989,0.03025,0.02501
0.06407,0.04621,0.03922,0.10749,0.1108,0.03196,0.0308,0.04412,0.04673,0.11234,0.01717,0.03912,0.03306,0.03306,0.05782,0.07695,0.01904,0.02557,0.0224,0.0247,0.02023
0.14592,0.05103,0.06135,0.06074,0.06455,0.02331,0.02355,0.02557,0.02843,0.06141,0.02804,0.0395,0.03752,0.03177,0.05774,0.05898,0.0218,0.03723,0.01931,0.01882,0.02615
0.05593,0.04176,0.05701,0.17655,0.13967,0.03587,0.04347,0.04648,0.05384,0.16776,0.01524,0.0418,0.04089,0.03946,0.05534,0.05939,0.01811,0.02849,0.01275,0.02639,0.02438
0.03538,0.03436,0.05159,0.17613,0.1385,0.04053,0.04047,0.05613,0.05177,0.16574,0.01943,0.03141,0.0266,0.0412,0.05803,0.06545,0.01924,0.02919,0.01371,0.02523,0.01812
0.03968,0.03217,0.03686,0.16813,0.11124,0.0552,0.0336,0.07098,0.04416,0.12983,0.0198,0.02841,0.02538,0.03251,0.07079,0.07573,0.023,0.0425,0.01152,0.02168,0.02374
0.03995,0.02626,0.03333,0.07959,0.06006,0.04268,0.02107,0.04055,0.02782,0.06635,0.02505,0.03849,0.03873,0.03141,0.0615,0.06748,0.03551,0.03951,0.01256,0.02386,0.02922
0.0361,0.02993,0.03767,0.05675,0.0402,0.04651,0.01901,0.0357,0.02284,0.03863,0.01448,0.02554,0.02259,0.03481,0.04006,0.04524,0.01838,0.0235,0.01466,0.02767,0.01895
0.04733,0.03735,0.04699,0.05733,0.03375,0.03813,0.01675,0.02923,0.02236,0.03589,0.01282,0.03223,0.02656,0.03417,0.03895,0.04473,0.01539,0.02292,0.01532,0.02394,0.01679
0.03274,0.05149,0.05518,0.04494,0.03287,0.02834,0.01968,0.0201,0.01976,0.03328,0.01496,0.03811,0.03448,0.05277,0.04624,0.06437,0.01793,0.02056,0.03153,0.05277,0.01673
0.04271,0.03461,0.03988,0.10872,0.08256,0.03209,0.0265,0.03635,0.03345,0.09047,0.01362,0.03539,0.03007,0.04801,0.03573,0.04212,0.01089,0.0217,0.01781,0.03421,0.01993
0.05711,0.04172,0.04435,0.05594,0.04476,0.03196,0.02218,0.02428,0.02472,0.04455,0.01387,0.02658,0.02885,0.03509,0.03628,0.03901,0.0141,0.02231,0.01939,0.02902,0.02415
0.05579,0.03676,0.04277,0.05098,0.04057,0.03431,0.02601,0.02642,0.02402,0.03892,0.01782,0.04188,0.03599,0.03368,0.03988,0.05275,0.01457,0.01996,0.01985,0.02245,0.02517
0.05703,0.03793,0.03461,0.0808,0.08275,0.03767,0.02783,0.03368,0.03177,0.08764,0.00939,0.02926,0.02438,0.03437,0.0315,0.04431,0.01462,0.04155,0.0171,0.02386,0.01578
0.06534,0.02389,0.03667,0.0915,0.07311,0.03759,0.02144,0.04542,0.03646,0.08289,0.0128,0.02325,0.02612,0.04242,0.04361,0.03537,0.01197,0.03336,0.01029,0.03032,0.02458
0.05533,0.04747,0.05238,0.04826,0.03292,0.03494,0.01446,0.02563,0.02043,0.03246,0.01101,0.02682,0.02573,0.02596,0.04302,0.03993,0.01526,0.02282,0.0131,0.0267,0.02017
0.04173,0.03169,0.03931,0.07859,0.05886,0.04522,0.02632,0.03028,0.03115,0.05941,0.01276,0.03353,0.02908,0.03043,0.03867,0.0485,0.01533,0.02486,0.01632,0.02493,0.0186
0.05316,0.04941,0.0611,0.06109,0.04609,0.05183,0.02763,0.0658,0.04761,0.04695,0.00876,0.02557,0.0186,0.03265,0.03049,0.04114,0.01198,0.01747,0.01813,0.02252,0.01364
0.04752,0.02945,0.04261,0.06191,0.05193,0.04861,0.03364,0.04558,0.03894,0.04613,0.02814,0.02438,0.02164,0.03071,0.02625,0.03046,0.01231,0.02034,0.01169,0.02521,0.01502
0.04994,0.0267,0.03841,0.05536,0.03816,0.05154,0.03022,0.03348,0.02924,0.03988,0.02284,0.02917,0.02556,0.03325,0.02693,0.0304,0.01301,0.0221,0.01096,0.02133,0.01853
0.0648,0.04888,0.05694,0.06238,0.03509,0.05426,0.02315,0.04247,0.0335,0.04165,0.01201,0.02855,0.02183,0.04552,0.03033,0.0342,0.01307,0.02131,0.0199,0.03536,0.01544
0.06972,0.03889,0.04533,0.04816,0.03148,0.04632,0.02772,0.04521,0.03392,0.03176,0.01181,0.02709,0.02651,0.04178,0.0314,0.03322,0.01507,0.01861,0.028,0.03038,0.01793
0.029,0.03349,0.04883,0.04889,0.02536,0.04338,0.02484,0.04338,0.03267,0.02471,0.03191,0.04484,0.03458,0.04176,0.04246,0.04102,0.02953,0.02409,0.01864,0.03755,0.02924
0.03714,0.02127,0.02994,0.03719,0.02193,0.03247,0.02027,0.03087,0.02911,0.02507,0.02376,0.05392,0.03702,0.03216,0.03816,0.04421,0.01865,0.02307,0.01279,0.02539,0.0229
0.04059,0.03836,0.04135,0.04789,0.03236,0.03296,0.02305,0.0283,0.023,0.03143,0.01242,0.03042,0.02974,0.03631,0.04429,0.03992,0.01334,0.01932,0.02391,0.02598,0.01916
0.05755,0.03564,0.04276,0.05144,0.02881,0.03101,0.01997,0.02629,0.02641,0.03246,0.01446,0.02435,0.02595,0.03168,0.05557,0.0417,0.01887,0.01735,0.01372,0.02903,0.02655
0.03939,0.03918,0.04561,0.04266,0.02789,0.02501,0.02415,0.02863,0.02438,0.02956,0.01192,0.02827,0.02628,0.04646,0.02733,0.03091,0.01014,0.02304,0.01887,0.03245,0.01643
0.03565,0.04485,0.07138,0.05876,0.04109,0.04383,0.02917,0.04439,0.02962,0.0446,0.00896,0.04214,0.03373,0.04498,0.03864,0.0452,0.01575,0.02127,0.01664,0.03056,0.01708
0.03588,0.02232,0.02791,0.04859,0.02891,0.05487,0.0192,0.06137,0.0342,0.03222,0.00934,0.02401,0.02482,0.02857,0.02704,0.03078,0.01483,0.02476,0.01173,0.0241,0.01434
0.04268,0.04076,0.05464,0.06189,0.04079,0.06717,0.0688,0.11361,0.12982,0.04816,0.0104,0.03397,0.02942,0.04379,0.04289,0.0388,0.01317,0.02292,0.01496,0.03042,0.02177
0.10076,0.04845,0.04947,0.05796,0.0381,0.07739,0.05059,0.10682,0.0858,0.04029,0.01195,0.02292,0.0207,0.04482,0.03766,0.03649,0.01057,0.02131,0.01997,0.0281,0.02036
0.065,0.03394,0.0466,0.04729,0.03344,0.05474,0.0323,0.04248,0.03558,0.0351,0.00866,0.02416,0.0229,0.03822,0.03299,0.03443,0.01005,0.02146,0.0159,0.02269,0.01805
0.19363,0.05132,0.05393,0.06449,0.06492,0.03662,0.04991,0.05816,0.06343,0.05958,0.00949,0.02412,0.01881,0.05474,0.02156,0.02187,0.01435,0.03411,0.02633,0.04256,0.01549
0.10497,0.03641,0.03627,0.04852,0.03157,0.03573,0.0235,0.02929,0.02612,0.03215,0.04195,0.03047,0.02819,0.05137,0.04106,0.04381,0.03922,0.03142,0.01813,0.02951,0.01968
0.05407,0.04058,0.05803,0.04869,0.03406,0.04768,0.02517,0.0403,0.03103,0.03436,0.02621,0.03175,0.03494,0.03836,0.05506,0.04777,0.0332,0.03346,0.02644,0.0283,0.02655
0.05842,0.0507,0.06134,0.05664,0.03952,0.03739,0.02058,0.03155,0.02731,0.04232,0.10303,0.04301,0.04187,0.04329,0.04233,0.04459,0.04117,0.02492,0.01418,0.02854,0.02108
0.05839,0.04825,0.06906,0.05888,0.0367,0.04579,0.0188,0.03951,0.02739,0.03851,0.03992,0.02892,0.02321,0.03607,0.02506,0.02912,0.03011,0.02967,0.01542,0.03579,0.01876
0.06044,0.02654,0.0411,0.05009,0.02918,0.03438,0.01489,0.02385,0.02094,0.03449,0.01175,0.02669,0.02222,0.03033,0.02523,0.02765,0.01565,0.02795,0.00988,0.02608,0.01654
0.0406,0.03298,0.03996,0.04305,0.0304,0.02972,0.02242,0.02367,0.02205,0.03332,0.01476,0.02628,0.02451,0.0325,0.03498,0.03614,0.01363,0.02594,0.01465,0.02118,0.01723
0.0331,0.03761,0.0451,0.06717,0.0601,0.0395,0.04731,0.10542,0.14311,0.05407,0.01307,0.04278,0.02992,0.03006,0.04022,0.04568,0.01602,0.02133,0.01677,0.02546,0.01774
0.02992,0.03399,0.04128,0.03879,0.02805,0.03095,0.01964,0.02528,0.02192,0.02657,0.01327,0.02781,0.0278,0.0331,0.03485,0.04488,0.01443,0.01906,0.01773,0.02683,0.01894
0.07115,0.03047,0.03251,0.04829,0.02949,0.0433,0.0195,0.05438,0.04186,0.03278,0.00852,0.02474,0.01894,0.02742,0.01972,0.02207,0.01197,0.0203,0.01189,0.02108,0.01374
0.06446,0.0289,0.03621,0.03924,0.0249,0.03242,0.0144,0.02157,0.02086,0.02506,0.01259,0.03607,0.02799,0.03099,0.03285,0.03421,0.01371,0.14435,0.01781,0.02721,0.01787
0.03242,0.03394,0.04448,0.04495,0.02882,0.02931,0.01692,0.02041,0.0165,0.02538,0.01636,0.02793,0.02359,0.04,0.04331,0.04752,0.02227,0.02877,0.01594,0.03199,0.01739
0.03421,0.03092,0.03627,0.04502,0.02679,0.02915,0.01638,0.0292,0.02208,0.02873,0.01423,0.02964,0.02587,0.03305,0.03067,0.03564,0.01916,0.03924,0.01723,0.02161,0.02079
0.03242,0.06935,0.08348,0.11138,0.07693,0.04235,0.02743,0.04545,0.03106,0.08864,0.01347,0.033,0.02698,0.05547,0.05125,0.04913,0.01795,0.0274,0.02614,0.03666,0.02355
0.03811,0.0572,0.07077,0.10651,0.08498,0.05101,0.03779,0.06688,0.04136,0.09489,0.02227,0.03816,0.03593,0.04398,0.05801,0.0642,0.01364,0.03724,0.02143,0.03493,0.02292
0.04344,0.05284,0.0712,0.04388,0.03582,0.03236,0.03049,0.02578,0.03191,0.03632,0.01086,0.02854,0.03453,0.07007,0.04204,0.04117,0.01377,0.04564,0.01986,0.04222,0.02706
0.06527,0.04331,0.04711,0.07147,0.05738,0.03426,0.0316,0.02908,0.03411,0.05668,0.01175,0.03124,0.02787,0.04635,0.04376,0.04291,0.01617,0.03108,0.01965,0.04081,0.02049
0.04058,0.04707,0.05079,0.04831,0.04404,0.02792,0.02791,0.02435,0.02902,0.03943,0.01486,0.03751,0.03219,0.03593,0.03787,0.04976,0.01838,0.02676,0.0219,0.0265,0.01675
0.0318,0.04214,0.03965,0.04669,0.03357,0.03189,0.02714,0.02842,0.03265,0.03625,0.03362,0.02399,0.02541,0.05073,0.02809,0.03495,0.01314,0.02313,0.01921,0.03923,0.01588
0.04076,0.04686,0.05835,0.05153,0.03982,0.04101,0.02589,0.03389,0.02986,0.04308,0.01117,0.02237,0.02208,0.0435,0.02539,0.03452,0.01422,0.02297,0.0174,0.02885,0.01553
0.04245,0.04978,0.06994,0.05971,0.03915,0.06696,0.03983,0.07242,0.06815,0.04132,0.01536,0.02506,0.02506,0.03767,0.02958,0.03352,0.01112,0.03466,0.01894,0.03129,0.01708
0.04481,0.06865,0.1053,0.04775,0.0352,0.05543,0.0433,0.05146,0.03614,0.03981,0.01613,0.02628,0.02843,0.05124,0.0373,0.03837,0.01421,0.06742,0.01894,0.03706,0.01989
0.08482,0.08369,0.10978,0.04029,0.02988,0.05018,0.03487,0.05166,0.02793,0.02945,0.01253,0.02303,0.02624,0.07031,0.02969,0.03419,0.01397,0.06584,0.03464,0.10894,0.0169
0.04222,0.04552,0.06245,0.04245,0.0264,0.05055,0.03382,0.06131,0.04354,0.02845,0.01371,0.02772,0.02243,0.05525,0.0299,0.02757,0.01432,0.06973,0.02342,0.05159,0.01858
0.10046,0.06113,0.08176,0.05736,0.03573,0.0702,0.02492,0.08341,0.04082,0.04149,0.00932,0.02669,0.02256,0.05143,0.02895,0.03534,0.01417,0.05805,0.02527,0.04261,0.01709
0.0517,0.05586,0.05711,0.04304,0.02653,0.0428,0.03172,0.03242,0.02445,0.02701,0.03265,0.02528,0.02491,0.04376,0.02699,0.03153,0.01907,0.03114,0.02178,0.03226,0.01924
0.04906,0.08023,0.09959,0.06632,0.09763,0.06261,0.05336,0.06526,0.04187,0.07569,0.02816,0.03283,0.03067,0.07217,0.04428,0.04991,0.02005,0.03106,0.02631,0.04331,0.02345
0.03895,0.0374,0.06315,0.06873,0.06074,0.06011,0.02982,0.09123,0.06021,0.05358,0.01874,0.02831,0.02725,0.04726,0.06092,0.05865,0.02755,0.03206,0.01683,0.03272,0.02557
0.04324,0.03124,0.04352,0.04739,0.03985,0.0294,0.02115,0.02821,0.02685,0.03847,0.02264,0.04859,0.03899,0.03929,0.0569,0.07534,0.02019,0.03911,0.01493,0.02976,0.02393
0.04582,0.03171,0.04997,0.05474,0.0521,0.03235,0.02771,0.03159,0.02098,0.04679,0.01576,0.02869,0.02929,0.0463,0.04563,0.04063,0.01865,0.0384,0.01537,0.02675,0.02442
0.03908,0.05621,0.07125,0.05622,0.03996,0.04036,0.02049,0.03001,0.02075,0.03998,0.01183,0.03909,0.0445,0.03558,0.05383,0.0436,0.02094,0.02969,0.02058,0.03043,0.03852
0.03975,0.04113,0.05061,0.05608,0.0425,0.0372,0.0197,0.0325,0.0256,0.0445,0.01391,0.036,0.03187,0.03748,0.04057,0.04347,0.0164,0.0442,0.0161,0.02325,0.02594
0.0532,0.05641,0.06625,0.03853,0.02211,0.02819,0.01635,0.01876,0.01728,0.02507,0.01392,0.03913,0.03271,0.03899,0.04695,0.05197,0.01843,0.05417,0.01978,0.02162,0.02128
0.06762,0.06303,0.05913,0.06544,0.05096,0.02559,0.02753,0.02434,0.03749,0.05873,0.01872,0.0306,0.02606,0.05114,0.03653,0.03661,0.01434,0.02732,0.0185,0.03096,0.02136
0.04919,0.03082,0.0492,0.04813,0.0293,0.02973,0.01619,0.02072,0.01874,0.03179,0.01454,0.03355,0.02628,0.03321,0.04598,0.05053,0.01412,0.02389,0.01399,0.0259,0.02646
